Timestamp, COUNTER, INTERPOLATED, AF3, T7, Pz, T8, AF4, RAW_CQ, MARKER_HARDWARE, MARKERS
1629356899.7447, 101, 0, 4248.718, 4347.692, 4093.333, 4163.077, 4231.282, 450, 0, []
1629356899.7525, 102, 0, 4272.308, 4327.179, 4123.59, 4186.667, 4248.205, 450, 0, []
1629356899.7604, 103, 0, 4264.103, 4335.897, 4109.231, 4178.974, 4235.385, 16190, 0, []
1629356899.7681, 104, 0, 4232.308, 4284.615, 4084.103, 4153.846, 4209.744, 450, 0, []
1629356899.776, 105, 0, 4235.897, 4274.359, 4101.026, 4156.41, 4212.821, 450, 0, []
1629356899.7838, 106, 0, 4254.872, 4314.872, 4105.128, 4174.359, 4223.59, 450, 0, []
1629356899.7917, 107, 0, 4245.641, 4308.718, 4111.795, 4172.821, 4222.051, 16190, 0, []
1629356899.7995, 108, 0, 4235.897, 4343.077, 4106.154, 4158.462, 4218.462, 450, 0, []
1629356899.8073, 109, 0, 4243.077, 4395.897, 4101.026, 4160.513, 4216.923, 450, 0, []
1629356899.8151, 110, 0, 4237.949, 4289.231, 4109.231, 4164.103, 4212.308, 450, 0, []
1629356899.823, 111, 0, 4230.769, 4154.872, 4091.795, 4155.897, 4209.231, 16190, 0, []
1629356899.8308, 112, 0, 4246.154, 4231.795, 4104.103, 4171.795, 4221.026, 450, 0, []
1629356899.8387, 113, 0, 4248.205, 4337.949, 4105.128, 4186.667, 4226.154, 450, 0, []
1629356899.8464, 114, 0, 4219.487, 4261.538, 4075.385, 4160.513, 4204.103, 450, 0, []
1629356899.8543, 115, 0, 4214.872, 4181.026, 4088.205, 4150.769, 4194.359, 16190, 0, []
1629356899.8621, 116, 0, 4232.821, 4237.436, 4093.333, 4176.923, 4207.179, 450, 0, []
1629356899.87, 117, 0, 4242.051, 4327.179, 4093.846, 4185.641, 4223.077, 450, 0, []
1629356899.8778, 118, 0, 4244.615, 4350.256, 4095.385, 4177.436, 4226.154, 450, 0, []
1629356899.8857, 119, 0, 4229.231, 4332.308, 4088.718, 4173.846, 4204.615, 16190, 0, []
1629356899.8934, 120, 0, 4216.923, 4299.487, 4092.821, 4174.872, 4190.769, 450, 0, []
1629356899.9012, 121, 0, 4234.872, 4220.513, 4075.897, 4168.718, 4198.462, 450, 0, []
1629356899.9091, 122, 0, 4252.821, 4161.026, 4088.718, 4161.538, 4197.949, 450, 0, []
1629356899.917, 123, 0, 4239.487, 4196.923, 4099.487, 4156.923, 4177.436, 16190, 0, []
1629356899.9248, 124, 0, 4222.051, 4260.513, 4069.231, 4148.718, 4164.103, 450, 0, []
1629356899.9326, 125, 0, 4214.359, 4281.026, 4066.154, 4137.436, 4158.974, 450, 0, []
1629356899.9404, 126, 0, 4195.385, 4329.231, 4053.846, 4113.846, 4134.872, 450, 0, []
1629356899.9482, 127, 0, 4189.744, 4357.949, 4051.282, 4107.179, 4122.564, 16190, 0, []
1629356899.9561, 128, 0, 4213.846, 4263.59, 4079.487, 4134.872, 4150.256, 450, 0, []
1629356899.9639, 0, 0, 4234.872, 4169.744, 4093.333, 4151.795, 4174.359, 450, 0, []
1629356899.9717, 1, 0, 4233.333, 4189.231, 4097.436, 4138.974, 4168.718, 450, 0, []
1629356899.9795, 2, 0, 4230.256, 4265.641, 4083.59, 4134.359, 4166.667, 16182, 0, []
1629356899.9874, 3, 0, 4228.205, 4239.487, 4086.154, 4144.615, 4173.846, 450, 0, []
1629356899.9952, 4, 0, 4210.256, 4056.41, 4077.949, 4128.718, 4159.487, 16158, 0, []
1629356900.0031, 5, 0, 4192.308, 3992.821, 4042.564, 4103.59, 4134.359, 450, 0, []
1629356900.0108, 6, 0, 4196.923, 4147.692, 4063.59, 4111.795, 4137.436, 16125, 0, []
1629356900.0187, 7, 0, 4211.282, 4249.231, 4077.436, 4127.179, 4156.923, 450, 0, []
1629356900.0265, 8, 0, 4210.769, 4207.179, 4067.692, 4117.436, 4157.436, 450, 0, []
1629356900.0344, 9, 0, 4211.282, 4204.615, 4080, 4110.256, 4150.769, 16158, 0, []
1629356900.0422, 10, 0, 4223.077, 4276.923, 4084.103, 4122.051, 4157.949, 450, 0, []
1629356900.05, 11, 0, 4211.282, 4286.154, 4089.231, 4127.692, 4159.487, 16190, 0, []
1629356900.0578, 12, 0, 4188.718, 4242.564, 4072.821, 4114.872, 4147.179, 450, 0, []
1629356900.0656, 13, 0, 4189.231, 4250.769, 4067.692, 4106.154, 4141.538, 450, 0, []
1629356900.0735, 14, 0, 4194.872, 4312.308, 4086.667, 4111.795, 4143.077, 450, 0, []
1629356900.0814, 15, 0, 4187.179, 4283.077, 4067.692, 4119.487, 4138.462, 16190, 0, []
1629356900.0891, 16, 0, 4182.564, 4187.179, 4070.256, 4122.564, 4136.41, 0, 0, []
1629356900.0969, 17, 0, 4183.59, 4176.923, 4078.462, 4116.41, 4132.821, 0, 0, []
1629356900.1048, 18, 0, 4184.103, 4114.359, 4069.231, 4111.282, 4125.641, 0, 0, []
1629356900.1126, 19, 0, 4189.231, 3996.923, 4075.385, 4120, 4130.256, 0, 0, []
1629356900.1205, 20, 0, 4185.128, 4009.744, 4065.128, 4123.59, 4131.795, 0, 0, []
1629356900.1282, 21, 0, 4174.872, 4090.769, 4070.256, 4121.538, 4126.154, 0, 0, []
1629356900.1361, 22, 0, 4166.154, 4049.231, 4063.077, 4112.821, 4117.949, 0, 0, []
1629356900.1439, 23, 0, 4161.026, 3993.846, 4042.564, 4103.077, 4104.615, 0, 0, []
1629356900.1518, 24, 0, 4174.872, 4042.564, 4064.615, 4117.436, 4117.949, 0, 0, []
1629356900.1596, 25, 0, 4186.667, 4009.744, 4063.59, 4125.641, 4137.436, 0, 0, []
1629356900.1674, 26, 0, 4184.615, 3887.692, 4064.615, 4121.538, 4138.462, 0, 0, []
1629356900.1752, 27, 0, 4192.821, 3872.821, 4075.385, 4134.359, 4144.615, 0, 0, []
1629356900.1831, 28, 0, 4199.487, 3958.462, 4062.564, 4138.462, 4143.59, 0, 0, []
1629356900.1909, 29, 0, 4183.077, 3928.718, 4064.615, 4120, 4128.205, 0, 0, []
1629356900.1988, 30, 0, 4176.923, 3876.41, 4059.487, 4109.231, 4127.692, 0, 0, []
1629356900.2065, 31, 0, 4195.385, 3996.923, 4080.513, 4123.077, 4150.256, 0, 0, []
1629356900.2144, 32, 0, 4207.692, 4072.308, 4098.462, 4137.949, 4165.128, 0, 0, []
1629356900.2222, 33, 0, 4203.59, 3949.231, 4067.692, 4128.718, 4154.872, 0, 0, []
1629356900.2301, 34, 0, 4191.282, 3895.385, 4054.872, 4109.231, 4137.949, 0, 0, []
1629356900.2379, 35, 0, 4186.154, 4011.282, 4052.308, 4103.59, 4136.41, 0, 0, []
1629356900.2457, 36, 0, 4190.256, 4064.615, 4057.949, 4111.282, 4142.051, 0, 0, []
1629356900.2535, 37, 0, 4195.385, 4081.538, 4064.103, 4116.923, 4138.462, 0, 0, []
1629356900.2613, 38, 0, 4192.308, 4088.205, 4058.462, 4113.846, 4132.308, 0, 0, []
1629356900.2692, 39, 0, 4186.667, 3951.795, 4080, 4117.436, 4144.103, 0, 0, []
1629356900.277, 40, 0, 4190.769, 3867.692, 4081.026, 4126.154, 4156.923, 0, 0, []
1629356900.2848, 41, 0, 4191.795, 3961.538, 4071.795, 4115.385, 4145.641, 0, 0, []
1629356900.2926, 42, 0, 4190.769, 4021.026, 4076.41, 4106.154, 4133.333, 0, 0, []
1629356900.3005, 43, 0, 4191.795, 3988.205, 4064.615, 4117.949, 4135.897, 0, 0, []
1629356900.3083, 44, 0, 4193.846, 4030.769, 4076.923, 4132.308, 4145.128, 0, 0, []
1629356900.3162, 45, 0, 4190.256, 4105.641, 4074.872, 4124.615, 4142.051, 0, 0, []
1629356900.3239, 46, 0, 4187.692, 4129.231, 4063.59, 4115.385, 4135.897, 0, 0, []
1629356900.3318, 47, 0, 4193.333, 4191.795, 4077.949, 4121.026, 4146.154, 0, 0, []
1629356900.3396, 48, 0, 4182.564, 4218.974, 4060, 4108.205, 4140.513, 0, 0, []
1629356900.3475, 49, 0, 4178.974, 4126.154, 4062.051, 4095.385, 4134.359, 0, 0, []
1629356900.3553, 50, 0, 4197.436, 4093.846, 4073.846, 4101.538, 4142.051, 0, 0, []
1629356900.3631, 51, 0, 4197.949, 4172.821, 4066.667, 4101.026, 4136.41, 0, 0, []
1629356900.3709, 52, 0, 4192.821, 4262.564, 4074.359, 4104.103, 4137.949, 0, 0, []
1629356900.3788, 53, 0, 4202.564, 4295.897, 4072.821, 4111.795, 4152.821, 0, 0, []
1629356900.3866, 54, 0, 4211.795, 4214.872, 4085.128, 4116.923, 4162.051, 0, 0, []
1629356900.3945, 55, 0, 4211.282, 4104.615, 4078.462, 4121.538, 4162.564, 0, 0, []
1629356900.4022, 56, 0, 4209.231, 4116.923, 4068.205, 4124.615, 4163.59, 0, 0, []
1629356900.41, 57, 0, 4208.718, 4110.769, 4094.872, 4126.667, 4169.744, 0, 0, []
1629356900.4179, 58, 0, 4208.205, 3973.333, 4083.077, 4122.051, 4172.308, 0, 0, []
1629356900.4257, 59, 0, 4207.692, 3937.436, 4070.769, 4122.051, 4168.718, 0, 0, []
1629356900.4336, 60, 0, 4210.256, 4062.564, 4078.974, 4129.231, 4168.205, 0, 0, []
1629356900.4413, 61, 0, 4215.385, 4107.692, 4081.026, 4131.795, 4175.897, 0, 0, []
1629356900.4492, 62, 0, 4223.59, 4038.462, 4092.821, 4133.333, 4181.026, 0, 0, []
1629356900.457, 63, 0, 4225.641, 4041.538, 4084.615, 4137.949, 4182.564, 0, 0, []
1629356900.4649, 64, 0, 4229.744, 4129.744, 4090.769, 4149.744, 4196.41, 450, 0, []
1629356900.4727, 65, 0, 4248.205, 4131.282, 4092.308, 4161.026, 4214.872, 450, 0, []
1629356900.4806, 66, 0, 4270.769, 4099.487, 4071.282, 4158.974, 4223.59, 16184, 0, []
1629356900.4883, 67, 0, 4289.744, 4152.308, 4085.128, 4150.769, 4241.538, 450, 0, []
1629356900.4962, 68, 0, 4326.154, 4185.128, 4087.179, 4142.564, 4272.821, 16185, 0, []
1629356900.504, 69, 0, 4394.359, 4141.026, 4089.744, 4145.641, 4317.949, 450, 0, []
1629356900.5119, 70, 0, 4464.615, 4136.923, 4096.41, 4156.41, 4368.205, 16129, 0, []
1629356900.5197, 71, 0, 4513.846, 4123.077, 4086.667, 4167.179, 4404.103, 450, 0, []
1629356900.5275, 72, 0, 4539.487, 4024.103, 4102.051, 4168.718, 4426.667, 450, 0, []
1629356900.5353, 73, 0, 4542.564, 4019.487, 4095.385, 4152.821, 4439.487, 16163, 0, []
1629356900.5432, 74, 0, 4546.154, 4082.051, 4097.436, 4160.513, 4453.846, 450, 0, []
1629356900.551, 75, 0, 4546.667, 4012.308, 4127.179, 4191.795, 4465.128, 16194, 0, []
1629356900.559, 76, 0, 4511.282, 3932.821, 4117.949, 4186.667, 4441.538, 450, 0, []
1629356900.5668, 77, 0, 4458.974, 3938.974, 4110.769, 4161.538, 4408.205, 450, 0, []
1629356900.5748, 78, 0, 4428.718, 3897.949, 4099.487, 4157.949, 4395.385, 450, 0, []
1629356900.5827, 79, 0, 4403.077, 3861.026, 4091.282, 4157.436, 4372.821, 16194, 0, []
1629356900.5905, 80, 0, 4377.436, 3926.667, 4107.692, 4154.872, 4345.128, 450, 0, []
1629356900.5984, 81, 0, 4366.667, 3937.949, 4108.205, 4155.897, 4339.487, 450, 0, []
1629356900.6061, 82, 0, 4348.718, 3884.103, 4107.692, 4155.897, 4330.769, 450, 0, []
1629356900.614, 83, 0, 4309.744, 3888.718, 4078.974, 4141.026, 4296.923, 16194, 0, []
1629356900.6218, 84, 0, 4295.385, 3930.256, 4073.846, 4133.333, 4280, 450, 0, []
1629356900.6297, 85, 0, 4322.051, 4027.179, 4126.154, 4159.487, 4301.026, 450, 0, []
1629356900.6375, 86, 0, 4329.744, 4162.564, 4135.385, 4176.41, 4308.718, 450, 0, []
1629356900.6453, 87, 0, 4302.051, 4215.897, 4127.692, 4154.872, 4287.179, 16194, 0, []
1629356900.6532, 88, 0, 4281.026, 4158.974, 4114.359, 4140.513, 4264.615, 450, 0, []
1629356900.6611, 89, 0, 4275.897, 4111.282, 4099.487, 4150.769, 4260.513, 450, 0, []
1629356900.6689, 90, 0, 4274.872, 4087.692, 4117.949, 4150.769, 4269.744, 450, 0, []
1629356900.6769, 91, 0, 4271.282, 4067.179, 4110.256, 4138.462, 4262.051, 16194, 0, []
1629356900.6847, 92, 0, 4263.077, 4130.769, 4103.077, 4144.103, 4247.179, 450, 0, []
1629356900.6926, 93, 0, 4256.41, 4212.308, 4103.59, 4152.821, 4247.179, 450, 0, []
1629356900.7004, 94, 0, 4242.564, 4205.641, 4081.026, 4138.462, 4229.744, 450, 0, []
1629356900.7084, 95, 0, 4229.744, 4158.974, 4071.795, 4128.718, 4207.179, 16194, 0, []
1629356900.7163, 96, 0, 4242.051, 4179.487, 4079.487, 4148.718, 4225.128, 450, 0, []
1629356900.7242, 97, 0, 4252.308, 4261.538, 4097.949, 4163.077, 4241.026, 450, 0, []
1629356900.7321, 98, 0, 4234.359, 4273.333, 4081.538, 4151.282, 4219.487, 450, 0, []
1629356900.7399, 99, 0, 4229.231, 4186.154, 4069.744, 4155.385, 4222.051, 16194, 0, []
1629356900.7478, 100, 0, 4252.308, 4150.769, 4113.846, 4174.359, 4252.821, 450, 0, []
1629356900.7556, 101, 0, 4251.282, 4197.436, 4104.103, 4158.974, 4241.026, 450, 0, []
1629356900.7634, 102, 0, 4230.769, 4165.641, 4084.103, 4142.564, 4217.949, 450, 0, []
1629356900.7712, 103, 0, 4220.513, 4076.41, 4093.846, 4147.692, 4219.487, 16194, 0, []
1629356900.7791, 104, 0, 4215.385, 4075.385, 4077.949, 4134.872, 4211.282, 450, 0, []
1629356900.7869, 105, 0, 4213.846, 4151.795, 4077.949, 4127.692, 4201.026, 450, 0, []
1629356900.7948, 106, 0, 4216.923, 4237.949, 4081.538, 4136.923, 4209.231, 450, 0, []
1629356900.8025, 107, 0, 4216.923, 4286.667, 4094.359, 4142.564, 4221.538, 16194, 0, []
1629356900.8104, 108, 0, 4213.333, 4246.667, 4100, 4137.949, 4214.359, 450, 0, []
1629356900.8182, 109, 0, 4198.462, 4186.154, 4066.154, 4126.667, 4187.692, 450, 0, []
1629356900.8261, 110, 0, 4186.667, 4186.154, 4069.231, 4127.179, 4185.128, 450, 0, []
1629356900.8339, 111, 0, 4191.282, 4218.462, 4074.359, 4135.897, 4202.564, 16194, 0, []
1629356900.8417, 112, 0, 4189.744, 4245.641, 4061.026, 4128.718, 4190.256, 450, 0, []
1629356900.8495, 113, 0, 4181.026, 4244.615, 4062.564, 4118.974, 4166.667, 450, 0, []
1629356900.8574, 114, 0, 4182.051, 4233.333, 4063.077, 4129.744, 4170.256, 450, 0, []
1629356900.8652, 115, 0, 4176.41, 4217.949, 4078.974, 4143.077, 4176.41, 16194, 0, []
1629356900.8732, 116, 0, 4158.974, 4185.128, 4066.667, 4137.436, 4158.974, 450, 0, []
1629356900.881, 117, 0, 4150.256, 4165.641, 4047.179, 4128.205, 4138.462, 450, 0, []
1629356900.889, 118, 0, 4149.744, 4202.564, 4055.897, 4129.744, 4130.256, 450, 0, []
1629356900.8969, 119, 0, 4130.256, 4196.41, 4045.128, 4123.077, 4122.564, 16194, 0, []
1629356900.9049, 120, 0, 4118.974, 4102.051, 4061.538, 4112.821, 4128.205, 450, 0, []
1629356900.9128, 121, 0, 4132.821, 4070.769, 4078.974, 4113.333, 4129.231, 450, 0, []
1629356900.9206, 122, 0, 4129.744, 4120.513, 4066.667, 4117.949, 4108.205, 450, 0, []
1629356900.9285, 123, 0, 4127.179, 4195.385, 4062.051, 4126.154, 4113.846, 16194, 0, []
1629356900.9363, 124, 0, 4166.154, 4243.59, 4048.718, 4132.821, 4142.051, 450, 0, []
1629356900.9442, 125, 0, 4217.436, 4174.872, 4073.846, 4136.41, 4161.538, 450, 0, []
1629356900.952, 126, 0, 4238.462, 4111.795, 4086.667, 4126.667, 4173.846, 450, 0, []
1629356900.9598, 127, 0, 4241.026, 4159.487, 4054.872, 4101.538, 4174.359, 16194, 0, []
1629356900.9676, 128, 0, 4252.821, 4221.538, 4066.154, 4095.385, 4173.333, 450, 0, []
1629356900.9755, 0, 0, 4264.615, 4257.436, 4086.154, 4110.769, 4173.333, 450, 0, []
1629356900.9833, 1, 0, 4247.179, 4266.154, 4076.41, 4103.59, 4151.282, 450, 0, []
1629356900.9912, 2, 0, 4219.487, 4238.974, 4050.769, 4074.872, 4125.128, 16184, 0, []
1629356900.9989, 3, 0, 4226.667, 4226.667, 4066.667, 4087.179, 4138.974, 450, 0, []
1629356901.0068, 4, 0, 4240, 4202.564, 4111.795, 4122.564, 4156.923, 16203, 0, []
1629356901.0146, 5, 0, 4219.487, 4135.897, 4090.256, 4118.974, 4142.051, 450, 0, []
1629356901.0226, 6, 0, 4194.359, 4118.462, 4084.103, 4108.205, 4131.282, 16129, 0, []
1629356901.0305, 7, 0, 4184.615, 4104.615, 4104.103, 4111.795, 4130.769, 450, 0, []
1629356901.0384, 8, 0, 4172.308, 4008.718, 4085.641, 4099.487, 4116.923, 450, 0, []
1629356901.0463, 9, 0, 4167.692, 3987.179, 4089.744, 4090.256, 4108.718, 16161, 0, []
1629356901.0543, 10, 0, 4176.923, 4054.872, 4090.256, 4097.436, 4111.282, 450, 0, []
1629356901.0622, 11, 0, 4176.923, 4103.077, 4095.385, 4102.051, 4115.897, 16195, 0, []
1629356901.0702, 12, 0, 4171.795, 4142.051, 4113.846, 4107.179, 4123.077, 450, 0, []
1629356901.078, 13, 0, 4173.846, 4126.667, 4100.513, 4111.282, 4121.026, 450, 0, []
1629356901.0858, 14, 0, 4170.256, 4053.333, 4093.846, 4110.769, 4110.256, 450, 0, []
1629356901.0937, 15, 0, 4158.974, 4001.026, 4080.513, 4112.821, 4106.667, 16195, 0, []
1629356901.1015, 16, 0, 4163.59, 3982.564, 4087.179, 4121.538, 4117.436, 0, 0, []
1629356901.1094, 17, 0, 4173.846, 4017.436, 4110.256, 4125.641, 4126.667, 0, 0, []
1629356901.1171, 18, 0, 4173.846, 4117.436, 4100, 4121.538, 4124.615, 0, 0, []
1629356901.125, 19, 0, 4185.128, 4149.231, 4114.359, 4132.821, 4130.256, 0, 0, []
1629356901.1328, 20, 0, 4192.821, 4098.462, 4120.513, 4140.513, 4135.897, 0, 0, []
1629356901.1408, 21, 0, 4169.231, 4148.718, 4102.051, 4122.051, 4120, 0, 0, []
1629356901.1487, 22, 0, 4153.333, 4228.718, 4098.462, 4109.231, 4107.692, 0, 0, []
1629356901.1566, 23, 0, 4154.359, 4198.974, 4085.641, 4111.795, 4105.128, 0, 0, []
1629356901.1643, 24, 0, 4147.179, 4174.359, 4088.205, 4114.359, 4098.462, 0, 0, []
1629356901.1722, 25, 0, 4144.615, 4229.744, 4081.538, 4106.154, 4096.41, 0, 0, []
1629356901.18, 26, 0, 4149.744, 4234.872, 4073.333, 4093.333, 4101.538, 0, 0, []
1629356901.188, 27, 0, 4155.385, 4163.077, 4093.846, 4106.154, 4114.872, 0, 0, []
1629356901.1959, 28, 0, 4164.615, 4148.205, 4089.744, 4130.256, 4122.564, 0, 0, []
1629356901.2038, 29, 0, 4163.077, 4215.385, 4084.615, 4125.641, 4113.846, 0, 0, []
1629356901.2117, 30, 0, 4140.513, 4265.128, 4071.282, 4099.487, 4095.385, 0, 0, []
1629356901.2197, 31, 0, 4134.359, 4250.769, 4066.154, 4093.333, 4096.41, 0, 0, []
1629356901.2276, 32, 0, 4155.385, 4221.538, 4095.897, 4103.59, 4118.462, 0, 0, []
1629356901.2354, 33, 0, 4146.154, 4215.385, 4069.744, 4085.128, 4103.59, 0, 0, []
1629356901.2432, 34, 0, 4126.154, 4173.333, 4048.205, 4069.744, 4082.051, 0, 0, []
1629356901.251, 35, 0, 4154.872, 4123.59, 4077.949, 4103.077, 4111.282, 0, 0, []
1629356901.2589, 36, 0, 4189.744, 4190.769, 4107.179, 4145.128, 4153.846, 0, 0, []
1629356901.2667, 37, 0, 4180.513, 4291.795, 4117.949, 4143.077, 4155.897, 0, 0, []
1629356901.2746, 38, 0, 4166.667, 4254.359, 4087.692, 4116.923, 4130.256, 0, 0, []
1629356901.2823, 39, 0, 4181.026, 4217.949, 4077.949, 4113.846, 4130.769, 0, 0, []
1629356901.2902, 40, 0, 4195.897, 4283.59, 4081.538, 4118.974, 4160, 0, 0, []
1629356901.298, 41, 0, 4203.59, 4244.615, 4066.154, 4112.308, 4180, 0, 0, []
1629356901.3059, 42, 0, 4215.897, 4150.256, 4080.513, 4119.487, 4183.59, 0, 0, []
1629356901.3137, 43, 0, 4220, 4195.897, 4081.026, 4136.923, 4185.641, 0, 0, []
1629356901.3216, 44, 0, 4214.359, 4228.205, 4081.026, 4146.154, 4188.205, 0, 0, []
1629356901.3295, 45, 0, 4211.795, 4149.231, 4093.333, 4146.154, 4190.769, 0, 0, []
1629356901.3375, 46, 0, 4192.308, 4116.41, 4075.897, 4124.615, 4171.282, 0, 0, []
1629356901.3454, 47, 0, 4160.513, 4160, 4061.026, 4099.487, 4140, 0, 0, []
1629356901.3534, 48, 0, 4166.667, 4167.692, 4058.462, 4116.923, 4150.769, 0, 0, []
1629356901.3612, 49, 0, 4199.487, 4146.154, 4091.795, 4153.846, 4191.282, 0, 0, []
1629356901.3692, 50, 0, 4213.846, 4141.026, 4117.949, 4161.026, 4203.077, 0, 0, []
1629356901.3771, 51, 0, 4204.103, 4138.462, 4090.256, 4144.615, 4185.128, 0, 0, []
1629356901.3851, 52, 0, 4192.821, 4140, 4091.282, 4133.333, 4177.436, 0, 0, []
1629356901.393, 53, 0, 4192.308, 4149.744, 4091.282, 4124.615, 4177.436, 0, 0, []
1629356901.4007, 54, 0, 4189.231, 4186.154, 4079.487, 4122.051, 4172.308, 0, 0, []
1629356901.4086, 55, 0, 4175.385, 4251.795, 4082.564, 4132.308, 4168.205, 0, 0, []
1629356901.4164, 56, 0, 4168.718, 4297.949, 4070.256, 4133.333, 4165.128, 0, 0, []
1629356901.4243, 57, 0, 4186.154, 4293.333, 4085.128, 4136.41, 4178.974, 0, 0, []
1629356901.4321, 58, 0, 4196.41, 4283.59, 4084.103, 4142.564, 4189.744, 0, 0, []
1629356901.4399, 59, 0, 4189.231, 4289.744, 4068.718, 4139.487, 4180.513, 0, 0, []
1629356901.4477, 60, 0, 4195.897, 4308.718, 4085.641, 4141.026, 4182.051, 0, 0, []
1629356901.4556, 61, 0, 4196.41, 4347.692, 4072.308, 4133.333, 4185.641, 0, 0, []
1629356901.4634, 62, 0, 4183.077, 4331.282, 4062.564, 4120, 4172.821, 0, 0, []
1629356901.4713, 63, 0, 4192.821, 4233.333, 4073.333, 4130.769, 4173.333, 0, 0, []
1629356901.479, 64, 0, 4208.718, 4163.59, 4087.179, 4149.231, 4190.769, 450, 0, []
1629356901.487, 65, 0, 4190.256, 4158.974, 4095.385, 4143.59, 4187.692, 450, 0, []
1629356901.4949, 66, 0, 4181.538, 4159.487, 4075.897, 4134.872, 4176.41, 16184, 0, []
1629356901.5029, 67, 0, 4202.051, 4191.282, 4086.667, 4154.359, 4188.718, 450, 0, []
1629356901.5108, 68, 0, 4200, 4272.821, 4091.282, 4162.051, 4193.846, 16177, 0, []
1629356901.5187, 69, 0, 4186.154, 4314.359, 4072.308, 4145.641, 4182.564, 450, 0, []
1629356901.5266, 70, 0, 4200, 4311.282, 4090.769, 4142.564, 4189.231, 16124, 0, []
1629356901.5346, 71, 0, 4214.872, 4310.256, 4098.462, 4146.154, 4204.615, 450, 0, []
1629356901.5425, 72, 0, 4210.769, 4304.103, 4107.179, 4147.692, 4209.744, 450, 0, []
1629356901.5503, 73, 0, 4210.769, 4309.231, 4115.385, 4153.333, 4212.821, 16162, 0, []
1629356901.5581, 74, 0, 4210.769, 4355.385, 4100.513, 4155.897, 4207.179, 450, 0, []
1629356901.5659, 75, 0, 4200, 4387.179, 4104.615, 4155.897, 4200.513, 16197, 0, []
1629356901.5738, 76, 0, 4194.359, 4397.436, 4093.333, 4149.744, 4200, 450, 0, []
1629356901.5816, 77, 0, 4197.949, 4444.615, 4091.282, 4138.974, 4194.359, 450, 0, []
1629356901.5895, 78, 0, 4191.795, 4443.077, 4086.667, 4134.359, 4179.487, 450, 0, []
1629356901.5972, 79, 0, 4177.949, 4324.103, 4059.487, 4136.923, 4170.769, 16197, 0, []
1629356901.6051, 80, 0, 4189.744, 4203.59, 4083.59, 4151.282, 4184.615, 450, 0, []
1629356901.6129, 81, 0, 4204.615, 4188.718, 4088.205, 4150.769, 4187.179, 450, 0, []
1629356901.6208, 82, 0, 4184.615, 4246.667, 4060, 4121.026, 4163.077, 450, 0, []
1629356901.6286, 83, 0, 4170.769, 4297.949, 4070.256, 4113.333, 4162.564, 16197, 0, []
1629356901.6364, 84, 0, 4192.308, 4275.897, 4094.872, 4137.436, 4186.154, 450, 0, []
1629356901.6442, 85, 0, 4198.462, 4198.974, 4104.615, 4137.949, 4181.538, 450, 0, []
1629356901.6521, 86, 0, 4172.308, 4193.333, 4075.385, 4117.949, 4154.872, 450, 0, []
1629356901.66, 87, 0, 4172.308, 4269.744, 4070.769, 4127.179, 4156.41, 16197, 0, []
1629356901.6679, 88, 0, 4191.282, 4314.872, 4093.333, 4144.103, 4168.718, 450, 0, []
1629356901.6757, 89, 0, 4184.103, 4363.077, 4078.974, 4139.487, 4161.026, 450, 0, []
1629356901.6836, 90, 0, 4181.026, 4496.923, 4087.692, 4147.692, 4169.231, 450, 0, []
1629356901.6916, 91, 0, 4198.974, 4547.692, 4095.897, 4161.538, 4186.154, 16197, 0, []
1629356901.6996, 92, 0, 4193.333, 4441.538, 4090.769, 4145.641, 4173.333, 450, 0, []
1629356901.7075, 93, 0, 4174.872, 4384.103, 4096.923, 4129.231, 4158.974, 450, 0, []
1629356901.7153, 94, 0, 4178.974, 4408.205, 4081.538, 4136.923, 4167.692, 450, 0, []
1629356901.7232, 95, 0, 4185.128, 4357.949, 4090.256, 4147.179, 4178.974, 16197, 0, []
1629356901.731, 96, 0, 4177.949, 4320.513, 4096.41, 4138.462, 4178.462, 450, 0, []
1629356901.7389, 97, 0, 4180.513, 4406.667, 4086.154, 4128.205, 4172.308, 450, 0, []
1629356901.7467, 98, 0, 4191.795, 4471.795, 4094.872, 4129.744, 4171.282, 450, 0, []
1629356901.7545, 99, 0, 4178.462, 4456.41, 4079.487, 4122.564, 4163.59, 16197, 0, []
1629356901.7623, 100, 0, 4167.179, 4452.821, 4083.077, 4122.564, 4156.41, 450, 0, []
1629356901.7702, 101, 0, 4187.692, 4467.692, 4095.897, 4145.128, 4169.231, 450, 0, []
1629356901.778, 102, 0, 4200, 4444.103, 4085.641, 4153.333, 4181.026, 450, 0, []
1629356901.786, 103, 0, 4189.744, 4408.718, 4093.846, 4142.051, 4181.026, 16197, 0, []
1629356901.7938, 104, 0, 4184.103, 4400, 4088.718, 4134.872, 4174.359, 450, 0, []
1629356901.8018, 105, 0, 4182.564, 4371.282, 4086.667, 4136.41, 4162.051, 450, 0, []
1629356901.8097, 106, 0, 4181.538, 4382.564, 4092.821, 4143.59, 4158.462, 450, 0, []
1629356901.8177, 107, 0, 4190.256, 4490.256, 4097.949, 4155.385, 4173.333, 16197, 0, []
1629356901.8256, 108, 0, 4197.949, 4542.051, 4114.872, 4161.026, 4183.59, 450, 0, []
1629356901.8335, 109, 0, 4197.949, 4474.359, 4101.026, 4155.385, 4174.359, 450, 0, []
1629356901.8414, 110, 0, 4198.462, 4442.051, 4109.744, 4156.41, 4175.897, 450, 0, []
1629356901.8494, 111, 0, 4201.026, 4423.59, 4125.128, 4157.436, 4188.205, 16197, 0, []
1629356901.8573, 112, 0, 4195.385, 4390.769, 4100.513, 4147.692, 4178.974, 450, 0, []
1629356901.8651, 113, 0, 4189.231, 4484.103, 4108.205, 4150.769, 4171.795, 450, 0, []
1629356901.873, 114, 0, 4195.385, 4604.615, 4118.974, 4156.923, 4182.564, 450, 0, []
1629356901.8807, 115, 0, 4200, 4589.231, 4117.436, 4147.692, 4183.59, 16197, 0, []
1629356901.8886, 116, 0, 4193.846, 4525.128, 4108.718, 4140, 4169.231, 450, 0, []
1629356901.8964, 117, 0, 4195.385, 4504.615, 4098.462, 4149.231, 4171.795, 450, 0, []
1629356901.9044, 118, 0, 4201.538, 4498.974, 4124.103, 4155.897, 4187.692, 450, 0, []
1629356901.9123, 119, 0, 4188.205, 4497.949, 4105.641, 4135.385, 4170.769, 16197, 0, []
1629356901.9201, 120, 0, 4178.462, 4484.615, 4082.051, 4121.538, 4151.282, 450, 0, []
1629356901.9279, 121, 0, 4196.41, 4494.359, 4111.282, 4138.462, 4178.462, 450, 0, []
1629356901.9358, 122, 0, 4210.769, 4532.308, 4114.872, 4146.154, 4196.923, 450, 0, []
1629356901.9436, 123, 0, 4204.103, 4521.538, 4107.692, 4138.462, 4181.026, 16197, 0, []
1629356901.9515, 124, 0, 4191.282, 4489.744, 4090.769, 4133.846, 4168.718, 450, 0, []
1629356901.9592, 125, 0, 4179.487, 4498.974, 4080, 4127.692, 4166.667, 450, 0, []
1629356901.9672, 126, 0, 4178.462, 4514.359, 4091.282, 4125.641, 4166.154, 450, 0, []
1629356901.9751, 127, 0, 4196.41, 4510.256, 4090.769, 4139.487, 4179.487, 16197, 0, []
1629356901.9831, 128, 0, 4209.744, 4521.538, 4111.282, 4154.359, 4195.897, 450, 0, []
1629356901.991, 0, 0, 4205.641, 4465.641, 4113.846, 4146.154, 4193.846, 450, 0, []
1629356901.9989, 1, 0, 4197.949, 4353.846, 4095.385, 4133.846, 4179.487, 450, 0, []
1629356902.0068, 2, 0, 4193.333, 4375.385, 4100.513, 4138.974, 4171.795, 16184, 0, []
1629356902.0148, 3, 0, 4190.769, 4479.487, 4098.974, 4146.667, 4170.769, 450, 0, []
1629356902.0227, 4, 0, 4198.462, 4482.564, 4117.949, 4144.103, 4177.436, 16161, 0, []
1629356902.0305, 5, 0, 4203.59, 4393.333, 4122.564, 4134.872, 4186.154, 450, 0, []
1629356902.0383, 6, 0, 4200, 4352.308, 4097.949, 4128.718, 4187.179, 16167, 0, []
1629356902.0461, 7, 0, 4200, 4385.641, 4097.949, 4128.205, 4185.128, 450, 0, []
1629356902.054, 8, 0, 4197.949, 4443.59, 4083.077, 4116.41, 4175.385, 450, 0, []
1629356902.0618, 9, 0, 4195.385, 4476.41, 4082.564, 4110.256, 4165.128, 16162, 0, []
1629356902.0697, 10, 0, 4203.59, 4474.359, 4095.385, 4127.179, 4170.256, 450, 0, []
1629356902.0774, 11, 0, 4202.564, 4442.051, 4093.846, 4134.872, 4175.385, 16197, 0, []
1629356902.0853, 12, 0, 4201.026, 4348.205, 4115.385, 4132.308, 4177.949, 450, 0, []
1629356902.0931, 13, 0, 4221.538, 4301.538, 4117.949, 4138.974, 4183.077, 450, 0, []
1629356902.1011, 14, 0, 4228.205, 4337.436, 4122.564, 4143.077, 4179.487, 450, 0, []
1629356902.109, 15, 0, 4214.872, 4334.359, 4118.462, 4128.718, 4176.923, 16197, 0, []
1629356902.1169, 16, 0, 4229.231, 4322.564, 4089.744, 4120.513, 4198.462, 0, 0, []
1629356902.1248, 17, 0, 4283.077, 4356.41, 4108.718, 4145.128, 4252.308, 0, 0, []
1629356902.1328, 18, 0, 4344.615, 4392.821, 4118.974, 4162.051, 4309.744, 0, 0, []
1629356902.1407, 19, 0, 4380.513, 4379.487, 4098.974, 4144.103, 4346.667, 0, 0, []
1629356902.1487, 20, 0, 4414.359, 4337.949, 4100, 4142.051, 4391.282, 0, 0, []
1629356902.1565, 21, 0, 4466.667, 4356.41, 4127.692, 4176.923, 4456.41, 0, 0, []
1629356902.1645, 22, 0, 4492.821, 4464.103, 4158.974, 4205.128, 4492.821, 0, 0, []
1629356902.1724, 23, 0, 4450.256, 4519.487, 4141.538, 4202.051, 4464.615, 0, 0, []
1629356902.1802, 24, 0, 4373.846, 4457.436, 4136.41, 4196.41, 4409.744, 0, 0, []
1629356902.1881, 25, 0, 4312.821, 4448.205, 4153.333, 4203.59, 4362.051, 0, 0, []
1629356902.1958, 26, 0, 4261.026, 4505.128, 4132.821, 4196.41, 4311.282, 0, 0, []
1629356902.2037, 27, 0, 4215.385, 4482.564, 4131.795, 4179.487, 4270.769, 0, 0, []
1629356902.2115, 28, 0, 4188.718, 4478.462, 4129.744, 4174.872, 4242.564, 0, 0, []
1629356902.2194, 29, 0, 4177.436, 4527.179, 4126.154, 4182.051, 4220.513, 0, 0, []
1629356902.2272, 30, 0, 4166.154, 4504.103, 4129.744, 4178.462, 4205.641, 0, 0, []
1629356902.235, 31, 0, 4141.538, 4497.436, 4101.538, 4152.821, 4181.538, 0, 0, []
1629356902.2428, 32, 0, 4131.282, 4562.564, 4109.231, 4145.641, 4165.128, 0, 0, []
1629356902.2508, 33, 0, 4145.128, 4517.949, 4122.564, 4166.667, 4173.333, 0, 0, []
1629356902.2587, 34, 0, 4148.205, 4373.333, 4123.59, 4180.513, 4181.538, 0, 0, []
1629356902.2667, 35, 0, 4135.385, 4355.897, 4145.128, 4175.897, 4179.487, 0, 0, []
1629356902.2745, 36, 0, 4117.436, 4431.282, 4128.718, 4160.513, 4157.949, 0, 0, []
1629356902.2825, 37, 0, 4109.744, 4423.077, 4121.026, 4149.231, 4135.385, 0, 0, []
1629356902.2905, 38, 0, 4115.385, 4383.077, 4118.462, 4149.231, 4132.821, 0, 0, []
1629356902.2984, 39, 0, 4110.256, 4378.974, 4095.385, 4148.205, 4134.359, 0, 0, []
1629356902.3063, 40, 0, 4102.051, 4354.872, 4098.462, 4150.769, 4131.795, 0, 0, []
1629356902.3142, 41, 0, 4104.103, 4336.923, 4093.846, 4152.308, 4126.154, 0, 0, []
1629356902.3221, 42, 0, 4108.718, 4395.897, 4098.974, 4153.846, 4126.154, 0, 0, []
1629356902.3299, 43, 0, 4119.487, 4443.59, 4108.205, 4169.744, 4138.974, 0, 0, []
1629356902.3378, 44, 0, 4131.795, 4425.641, 4110.256, 4184.103, 4150.256, 0, 0, []
1629356902.3457, 45, 0, 4133.333, 4462.564, 4122.564, 4176.923, 4153.846, 0, 0, []
1629356902.3535, 46, 0, 4132.821, 4511.795, 4110.256, 4161.538, 4154.872, 0, 0, []
1629356902.3613, 47, 0, 4140.513, 4470.256, 4112.821, 4160.513, 4153.846, 0, 0, []
1629356902.3692, 48, 0, 4146.154, 4456.923, 4117.436, 4160.513, 4144.615, 0, 0, []
1629356902.377, 49, 0, 4148.718, 4476.923, 4111.282, 4157.949, 4143.077, 0, 0, []
1629356902.3849, 50, 0, 4148.205, 4392.308, 4127.692, 4168.205, 4155.385, 0, 0, []
1629356902.3926, 51, 0, 4142.051, 4292.821, 4102.564, 4165.641, 4151.795, 0, 0, []
1629356902.4006, 52, 0, 4141.026, 4384.103, 4079.487, 4147.692, 4140, 0, 0, []
1629356902.4085, 53, 0, 4130.256, 4543.077, 4091.282, 4140, 4135.897, 0, 0, []
1629356902.4165, 54, 0, 4115.385, 4524.103, 4095.385, 4136.41, 4125.641, 0, 0, []
1629356902.4244, 55, 0, 4137.949, 4408.205, 4111.795, 4134.872, 4123.59, 0, 0, []
1629356902.4323, 56, 0, 4180, 4382.564, 4096.41, 4136.41, 4143.077, 0, 0, []
1629356902.4402, 57, 0, 4201.026, 4399.487, 4086.154, 4144.615, 4169.231, 0, 0, []
1629356902.4482, 58, 0, 4210.769, 4355.385, 4104.615, 4151.795, 4182.564, 0, 0, []
1629356902.4561, 59, 0, 4208.718, 4350.769, 4094.872, 4140.513, 4169.231, 0, 0, []
1629356902.4641, 60, 0, 4180, 4395.385, 4091.282, 4117.949, 4138.974, 0, 0, []
1629356902.4719, 61, 0, 4155.897, 4371.795, 4085.641, 4098.974, 4116.41, 0, 0, []
1629356902.4799, 62, 0, 4156.923, 4338.462, 4085.128, 4097.949, 4110.256, 0, 0, []
1629356902.4878, 63, 0, 4156.923, 4376.923, 4087.179, 4105.128, 4100.513, 0, 0, []
1629356902.4956, 64, 0, 4146.667, 4409.744, 4069.744, 4108.205, 4087.692, 450, 0, []
1629356902.5035, 65, 0, 4148.718, 4345.128, 4093.846, 4123.59, 4101.538, 450, 0, []
1629356902.5112, 66, 0, 4165.128, 4267.179, 4107.692, 4144.103, 4128.718, 16185, 0, []
1629356902.5192, 67, 0, 4169.231, 4243.077, 4091.795, 4135.385, 4130.256, 450, 0, []
1629356902.5271, 68, 0, 4164.103, 4234.872, 4093.333, 4113.846, 4123.077, 16158, 0, []
1629356902.535, 69, 0, 4171.282, 4232.308, 4095.385, 4114.872, 4133.846, 450, 0, []
1629356902.5428, 70, 0, 4184.103, 4280.513, 4121.026, 4130.769, 4153.333, 16140, 0, []
1629356902.5506, 71, 0, 4184.103, 4377.949, 4121.538, 4132.821, 4157.436, 450, 0, []
1629356902.5584, 72, 0, 4168.205, 4356.923, 4090.769, 4121.026, 4132.308, 450, 0, []
1629356902.5663, 73, 0, 4148.718, 4189.744, 4092.308, 4120.513, 4107.179, 16163, 0, []
1629356902.5741, 74, 0, 4137.949, 4150.769, 4088.205, 4127.692, 4105.128, 450, 0, []
1629356902.5821, 75, 0, 4128.718, 4269.744, 4083.077, 4120, 4100.513, 16197, 0, []
1629356902.5899, 76, 0, 4109.744, 4290.769, 4066.667, 4092.821, 4072.821, 450, 0, []
1629356902.5979, 77, 0, 4105.641, 4269.231, 4056.923, 4082.051, 4064.103, 450, 0, []
1629356902.6058, 78, 0, 4132.308, 4347.179, 4082.051, 4103.077, 4094.359, 450, 0, []
1629356902.6138, 79, 0, 4145.641, 4346.154, 4077.949, 4112.308, 4108.205, 16197, 0, []
1629356902.6217, 80, 0, 4135.897, 4228.718, 4081.538, 4110.256, 4100.513, 450, 0, []
1629356902.6297, 81, 0, 4137.949, 4197.949, 4086.154, 4122.051, 4106.154, 450, 0, []
1629356902.6375, 82, 0, 4140, 4230.769, 4070.769, 4127.692, 4104.615, 450, 0, []
1629356902.6453, 83, 0, 4140.513, 4188.718, 4086.154, 4129.744, 4099.487, 16197, 0, []
1629356902.6532, 84, 0, 4155.897, 4124.615, 4086.154, 4136.923, 4121.538, 450, 0, []
1629356902.6611, 85, 0, 4171.795, 4123.077, 4085.641, 4142.051, 4155.897, 450, 0, []
1629356902.669, 86, 0, 4177.436, 4197.949, 4093.333, 4145.128, 4171.282, 450, 0, []
1629356902.6768, 87, 0, 4171.282, 4251.795, 4081.538, 4144.103, 4163.59, 16197, 0, []
1629356902.6847, 88, 0, 4146.667, 4190.769, 4088.205, 4133.333, 4146.667, 450, 0, []
1629356902.6927, 89, 0, 4135.897, 4176.41, 4090.256, 4133.333, 4137.436, 450, 0, []
1629356902.7006, 90, 0, 4149.231, 4261.538, 4094.359, 4147.692, 4138.974, 450, 0, []
1629356902.7084, 91, 0, 4141.026, 4232.308, 4086.667, 4135.897, 4123.077, 16197, 0, []
1629356902.7163, 92, 0, 4141.538, 4107.692, 4078.462, 4126.667, 4120, 450, 0, []
1629356902.7242, 93, 0, 4187.692, 4102.051, 4130.769, 4166.154, 4166.667, 450, 0, []
1629356902.7322, 94, 0, 4206.667, 4144.615, 4146.154, 4188.718, 4192.821, 450, 0, []
1629356902.7401, 95, 0, 4177.436, 4131.795, 4116.41, 4161.026, 4165.641, 16197, 0, []
1629356902.7481, 96, 0, 4167.179, 4147.179, 4109.231, 4145.128, 4152.821, 450, 0, []
1629356902.7559, 97, 0, 4172.821, 4199.487, 4104.615, 4148.205, 4163.59, 450, 0, []
1629356902.7639, 98, 0, 4165.641, 4251.282, 4112.308, 4141.538, 4161.538, 450, 0, []
1629356902.7718, 99, 0, 4161.538, 4226.154, 4096.41, 4128.205, 4148.718, 16197, 0, []
1629356902.7798, 100, 0, 4160.513, 4131.795, 4075.385, 4120.513, 4142.564, 450, 0, []
1629356902.7877, 101, 0, 4157.949, 4081.538, 4080.513, 4121.026, 4150.769, 450, 0, []
1629356902.7954, 102, 0, 4155.897, 4034.872, 4064.103, 4115.897, 4151.795, 450, 0, []
1629356902.8033, 103, 0, 4167.179, 3977.436, 4080, 4127.179, 4157.436, 16197, 0, []
1629356902.8111, 104, 0, 4187.179, 4034.359, 4103.077, 4153.846, 4175.385, 450, 0, []
1629356902.819, 105, 0, 4184.103, 4162.051, 4093.333, 4160, 4175.897, 450, 0, []
1629356902.8268, 106, 0, 4177.436, 4203.077, 4097.949, 4156.923, 4176.41, 450, 0, []
1629356902.8346, 107, 0, 4175.897, 4203.077, 4094.359, 4153.846, 4173.846, 16197, 0, []
1629356902.8424, 108, 0, 4161.026, 4217.436, 4099.487, 4150.769, 4147.692, 450, 0, []
1629356902.8503, 109, 0, 4154.872, 4242.051, 4094.872, 4153.333, 4135.897, 450, 0, []
1629356902.8581, 110, 0, 4157.436, 4247.179, 4081.026, 4152.821, 4137.436, 450, 0, []
1629356902.866, 111, 0, 4144.615, 4197.436, 4092.821, 4147.692, 4118.462, 16197, 0, []
1629356902.8737, 112, 0, 4130.769, 4146.154, 4077.949, 4142.051, 4094.872, 450, 0, []
1629356902.8816, 113, 0, 4137.436, 4156.41, 4069.231, 4138.974, 4102.564, 450, 0, []
1629356902.8894, 114, 0, 4149.231, 4204.103, 4074.872, 4137.436, 4116.923, 450, 0, []
1629356902.8974, 115, 0, 4147.179, 4164.615, 4068.718, 4130.769, 4109.744, 16197, 0, []
1629356902.9053, 116, 0, 4144.103, 4089.231, 4082.564, 4124.615, 4107.692, 450, 0, []
1629356902.9132, 117, 0, 4146.154, 4149.231, 4084.615, 4125.641, 4117.436, 450, 0, []
1629356902.9211, 118, 0, 4154.872, 4272.821, 4092.821, 4131.282, 4124.103, 450, 0, []
1629356902.9291, 119, 0, 4162.564, 4368.718, 4090.769, 4129.744, 4122.564, 16197, 0, []
1629356902.937, 120, 0, 4156.41, 4441.026, 4066.154, 4120, 4113.846, 450, 0, []
1629356902.945, 121, 0, 4152.308, 4428.205, 4086.667, 4124.103, 4117.949, 450, 0, []
1629356902.9528, 122, 0, 4156.923, 4326.667, 4088.205, 4127.692, 4122.564, 450, 0, []
1629356902.9606, 123, 0, 4148.718, 4267.179, 4070.256, 4112.821, 4109.744, 16197, 0, []
1629356902.9686, 124, 0, 4146.667, 4246.154, 4075.897, 4106.667, 4112.308, 450, 0, []
1629356902.9765, 125, 0, 4173.846, 4197.436, 4090.769, 4128.718, 4148.718, 450, 0, []
1629356902.9845, 126, 0, 4184.615, 4198.974, 4116.923, 4140, 4164.103, 450, 0, []
1629356902.9924, 127, 0, 4166.154, 4254.359, 4108.718, 4118.462, 4137.436, 16197, 0, []
1629356903.0004, 128, 1, 4163.818, 4275.157, 4107.407, 4120.057, 4136.068, 450, 0, []
1629356903.0083, 0, 1, 4161.481, 4295.954, 4106.097, 4121.652, 4134.701, 450, 0, []
1629356903.0162, 1, 1, 4159.145, 4316.752, 4104.786, 4123.248, 4133.333, 450, 0, []
1629356903.0241, 2, 1, 4156.809, 4337.55, 4103.476, 4124.843, 4131.966, 16185, 0, []
1629356903.0319, 3, 1, 4154.473, 4358.348, 4102.165, 4126.439, 4130.598, 450, 0, []
1629356903.0398, 4, 1, 4152.137, 4379.145, 4100.855, 4128.034, 4129.231, 16158, 0, []
1629356903.0477, 5, 1, 4149.801, 4399.943, 4099.544, 4129.63, 4127.863, 450, 0, []
1629356903.0556, 6, 1, 4147.464, 4420.741, 4098.234, 4131.225, 4126.496, 16140, 0, []
1629356903.0635, 7, 0, 4145.128, 4441.538, 4096.923, 4132.821, 4125.128, 450, 0, []
1629356909.7916, 74, 0, 4248.205, 4279.487, 4141.026, 4159.487, 4236.923, 450, 0, []
1629356909.7995, 75, 0, 4257.949, 4314.872, 4123.59, 4155.385, 4230.769, 16192, 0, []
1629356909.8074, 76, 0, 4260, 4177.436, 4134.872, 4159.487, 4243.59, 450, 0, []
1629356909.8152, 77, 0, 4237.436, 4080.513, 4122.564, 4139.487, 4228.718, 450, 0, []
1629356909.823, 78, 0, 4223.59, 4136.41, 4098.974, 4113.846, 4202.051, 450, 0, []
1629356909.8308, 79, 0, 4235.385, 4211.282, 4108.718, 4121.538, 4210.256, 16192, 0, []
1629356909.8387, 80, 0, 4246.154, 4239.487, 4122.051, 4142.051, 4230.256, 450, 0, []
1629356909.8465, 81, 0, 4240.513, 4205.641, 4131.795, 4141.026, 4225.128, 450, 0, []
1629356909.8544, 82, 0, 4235.897, 4137.949, 4111.282, 4126.154, 4212.821, 450, 0, []
1629356909.8621, 83, 0, 4239.487, 4175.897, 4109.744, 4131.282, 4221.538, 16192, 0, []
1629356909.87, 84, 0, 4240.513, 4243.59, 4131.282, 4143.077, 4230.256, 450, 0, []
1629356909.8778, 85, 0, 4240, 4193.333, 4120, 4144.615, 4220.513, 450, 0, []
1629356909.8857, 86, 0, 4250.256, 4169.744, 4125.128, 4158.462, 4224.103, 450, 0, []
1629356909.8935, 87, 0, 4258.462, 4266.667, 4126.154, 4170.769, 4241.026, 16192, 0, []
1629356909.9015, 88, 0, 4242.564, 4337.436, 4116.41, 4152.821, 4226.667, 450, 0, []
1629356909.9093, 89, 0, 4224.615, 4325.128, 4117.949, 4140, 4205.128, 450, 0, []
1629356909.9173, 90, 0, 4228.205, 4313.333, 4104.103, 4149.231, 4211.795, 450, 0, []
1629356909.9252, 91, 0, 4228.205, 4316.41, 4105.128, 4150.769, 4214.359, 16192, 0, []
1629356909.9332, 92, 0, 4217.949, 4315.385, 4097.949, 4141.026, 4198.462, 450, 0, []
1629356909.9411, 93, 0, 4215.897, 4320, 4090.769, 4136.923, 4194.872, 450, 0, []
1629356909.949, 94, 0, 4221.026, 4294.872, 4109.744, 4137.949, 4205.128, 450, 0, []
1629356909.9569, 95, 0, 4231.795, 4225.128, 4115.897, 4138.974, 4212.308, 16192, 0, []
1629356909.9647, 96, 0, 4248.718, 4178.462, 4134.872, 4152.821, 4228.205, 450, 0, []
1629356909.9726, 97, 0, 4252.308, 4203.59, 4132.308, 4157.436, 4235.385, 450, 0, []
1629356909.9804, 98, 0, 4241.538, 4207.179, 4116.41, 4148.205, 4220.513, 450, 0, []
1629356909.9882, 99, 0, 4237.436, 4156.41, 4131.282, 4152.308, 4212.308, 16192, 0, []
1629356909.996, 100, 0, 4228.205, 4174.359, 4117.949, 4145.641, 4210.769, 450, 0, []
1629356910.0039, 101, 0, 4222.051, 4252.821, 4117.949, 4129.744, 4206.667, 450, 0, []
1629356910.0117, 102, 0, 4232.821, 4261.026, 4127.179, 4131.282, 4206.667, 450, 0, []
1629356910.0196, 103, 0, 4243.077, 4217.436, 4114.872, 4139.487, 4218.462, 16192, 0, []
1629356910.0273, 104, 0, 4270.769, 4260.513, 4121.538, 4137.949, 4250.769, 450, 0, []
1629356910.0352, 105, 0, 4341.026, 4351.282, 4123.077, 4133.333, 4306.667, 450, 0, []
1629356910.043, 106, 0, 4433.846, 4326.154, 4141.538, 4143.59, 4383.077, 450, 0, []
1629356910.0509, 107, 0, 4510.769, 4257.436, 4152.821, 4155.385, 4458.974, 16192, 0, []
1629356910.0587, 108, 0, 4564.615, 4253.333, 4130.769, 4155.385, 4506.154, 450, 0, []
1629356910.0665, 109, 0, 4597.949, 4238.974, 4133.333, 4152.821, 4530.769, 450, 0, []
1629356910.0743, 110, 0, 4595.385, 4189.744, 4123.077, 4147.692, 4533.846, 450, 0, []
1629356910.0823, 111, 0, 4568.718, 4224.103, 4124.103, 4143.077, 4521.538, 16192, 0, []
1629356910.0902, 112, 0, 4548.718, 4326.154, 4143.59, 4152.308, 4513.846, 450, 0, []
1629356910.0982, 113, 0, 4515.897, 4342.564, 4127.179, 4150.769, 4488.718, 450, 0, []
1629356910.106, 114, 0, 4476.923, 4249.744, 4125.641, 4140, 4458.462, 450, 0, []
1629356910.114, 115, 0, 4471.282, 4195.897, 4139.487, 4149.744, 4457.949, 16192, 0, []
1629356910.1219, 116, 0, 4460, 4281.026, 4150.256, 4157.436, 4451.282, 450, 0, []
1629356910.1298, 117, 0, 4418.462, 4369.231, 4146.667, 4146.667, 4418.462, 450, 0, []
1629356910.1377, 118, 0, 4387.692, 4315.385, 4125.128, 4144.615, 4387.179, 450, 0, []
1629356910.1454, 119, 0, 4372.308, 4243.077, 4138.974, 4159.487, 4372.308, 16192, 0, []
1629356910.1533, 120, 0, 4355.385, 4266.667, 4146.667, 4172.821, 4360.513, 450, 0, []
1629356910.1611, 121, 0, 4350.256, 4273.846, 4151.795, 4180, 4354.359, 450, 0, []
1629356910.169, 122, 0, 4345.641, 4221.538, 4155.385, 4169.744, 4344.103, 450, 0, []
1629356910.1768, 123, 0, 4320, 4235.385, 4123.59, 4140.513, 4315.897, 16192, 0, []
1629356910.1846, 124, 0, 4308.205, 4286.667, 4132.821, 4143.077, 4306.154, 450, 0, []
1629356910.1924, 125, 0, 4315.385, 4229.744, 4150.769, 4168.205, 4317.949, 450, 0, []
1629356910.2003, 126, 0, 4313.846, 4184.615, 4149.744, 4170.769, 4320.513, 450, 0, []
1629356910.2083, 127, 0, 4307.179, 4266.154, 4157.949, 4169.744, 4316.41, 16192, 0, []
1629356910.2162, 128, 0, 4305.641, 4285.128, 4151.282, 4178.462, 4321.026, 450, 0, []
1629356910.2239, 0, 0, 4307.692, 4193.846, 4156.923, 4181.026, 4322.051, 450, 0, []
1629356910.2319, 1, 0, 4298.462, 4216.41, 4141.026, 4170.256, 4303.59, 450, 0, []
1629356910.2398, 2, 0, 4281.026, 4299.487, 4130.769, 4168.718, 4292.308, 16187, 0, []
1629356910.2478, 3, 0, 4274.872, 4248.205, 4157.949, 4181.026, 4295.897, 450, 0, []
1629356910.2557, 4, 0, 4264.615, 4165.128, 4141.026, 4175.897, 4275.897, 16185, 0, []
1629356910.2636, 5, 0, 4231.282, 4133.333, 4116.41, 4155.897, 4244.103, 450, 0, []
1629356910.2715, 6, 0, 4212.821, 4142.564, 4112.308, 4147.692, 4233.333, 16146, 0, []
1629356910.2795, 7, 0, 4225.128, 4211.282, 4116.41, 4155.385, 4232.308, 450, 0, []
1629356910.2874, 8, 0, 4227.692, 4255.385, 4136.41, 4163.077, 4231.795, 450, 0, []
1629356910.2952, 9, 0, 4214.872, 4184.615, 4124.103, 4158.462, 4230.256, 16166, 0, []
1629356910.303, 10, 0, 4216.923, 4081.538, 4121.538, 4152.308, 4230.256, 450, 0, []
1629356910.3108, 11, 0, 4238.462, 4100, 4147.179, 4165.641, 4246.667, 16192, 0, []
1629356910.3187, 12, 0, 4250.256, 4167.179, 4158.462, 4179.487, 4269.744, 450, 0, []
1629356910.3265, 13, 0, 4242.051, 4203.59, 4161.026, 4171.795, 4268.718, 450, 0, []
1629356910.3344, 14, 0, 4232.308, 4252.821, 4138.974, 4161.026, 4247.692, 450, 0, []
1629356910.3421, 15, 0, 4235.385, 4265.641, 4138.462, 4167.179, 4248.205, 16192, 0, []
1629356910.35, 16, 0, 4238.462, 4214.872, 4148.205, 4171.795, 4259.487, 0, 0, []
1629356910.3578, 17, 0, 4222.051, 4191.282, 4123.077, 4152.821, 4241.538, 0, 0, []
1629356910.3657, 18, 0, 4213.333, 4197.436, 4118.974, 4144.615, 4231.795, 0, 0, []
1629356910.3735, 19, 0, 4232.308, 4177.949, 4117.436, 4160.513, 4252.308, 0, 0, []
1629356910.3814, 20, 0, 4246.667, 4167.692, 4129.231, 4174.872, 4260.513, 0, 0, []
1629356910.3893, 21, 0, 4235.385, 4138.462, 4140, 4176.41, 4246.667, 0, 0, []
1629356910.3973, 22, 0, 4213.333, 4041.538, 4117.949, 4164.615, 4234.359, 0, 0, []
1629356910.4052, 23, 0, 4203.077, 4021.026, 4127.179, 4153.846, 4230.769, 0, 0, []
1629356910.4132, 24, 0, 4207.692, 4142.051, 4136.41, 4152.821, 4228.718, 0, 0, []
1629356910.421, 25, 0, 4215.385, 4229.231, 4145.641, 4164.103, 4226.667, 0, 0, []
1629356910.429, 26, 0, 4208.205, 4164.103, 4164.615, 4172.308, 4228.718, 0, 0, []
1629356910.4369, 27, 0, 4195.385, 4066.154, 4148.205, 4162.564, 4224.615, 0, 0, []
1629356910.4447, 28, 0, 4200, 4106.667, 4146.667, 4158.462, 4222.051, 0, 0, []
1629356910.4526, 29, 0, 4214.359, 4246.667, 4149.231, 4164.615, 4230.769, 0, 0, []
1629356910.4603, 30, 0, 4217.436, 4270.256, 4150.769, 4166.667, 4237.436, 0, 0, []
1629356910.4682, 31, 0, 4209.744, 4182.051, 4156.41, 4162.564, 4231.795, 0, 0, []
1629356910.476, 32, 0, 4200.513, 4181.538, 4134.359, 4150.769, 4216.41, 0, 0, []
1629356910.4839, 33, 0, 4196.923, 4239.487, 4143.077, 4147.179, 4210.256, 0, 0, []
1629356910.4917, 34, 0, 4188.718, 4212.821, 4147.692, 4145.641, 4204.615, 0, 0, []
1629356910.4995, 35, 0, 4177.949, 4211.795, 4132.821, 4133.846, 4191.282, 0, 0, []
1629356910.5073, 36, 0, 4182.051, 4312.821, 4150.769, 4135.385, 4187.179, 0, 0, []
1629356910.5153, 37, 0, 4173.333, 4292.821, 4137.949, 4135.897, 4170.256, 0, 0, []
1629356910.5232, 38, 0, 4155.385, 4173.846, 4126.154, 4129.744, 4158.462, 0, 0, []
1629356910.5312, 39, 0, 4161.538, 4220, 4132.308, 4137.436, 4175.897, 0, 0, []
1629356910.539, 40, 0, 4160.513, 4343.59, 4128.205, 4149.231, 4174.872, 0, 0, []
1629356910.547, 41, 0, 4140.513, 4349.231, 4132.821, 4154.872, 4147.692, 0, 0, []
1629356910.5549, 42, 0, 4135.897, 4304.103, 4129.231, 4156.41, 4137.949, 0, 0, []
1629356910.5629, 43, 0, 4144.615, 4310.256, 4147.179, 4158.462, 4150.769, 0, 0, []
1629356910.5708, 44, 0, 4144.103, 4310.769, 4155.897, 4155.897, 4152.308, 0, 0, []
1629356910.5787, 45, 0, 4135.897, 4233.333, 4137.436, 4149.744, 4133.846, 0, 0, []
1629356910.5866, 46, 0, 4126.154, 4128.718, 4139.487, 4142.564, 4117.949, 0, 0, []
1629356910.5945, 47, 0, 4127.692, 4090.769, 4133.333, 4140, 4117.436, 0, 0, []
1629356910.6024, 48, 0, 4136.923, 4145.128, 4143.077, 4150.256, 4132.308, 0, 0, []
1629356910.6102, 49, 0, 4127.692, 4232.821, 4142.564, 4146.154, 4131.282, 0, 0, []
1629356910.618, 50, 0, 4110.769, 4226.667, 4112.821, 4124.103, 4101.538, 0, 0, []
1629356910.6258, 51, 0, 4117.436, 4143.59, 4129.231, 4127.179, 4091.282, 0, 0, []
1629356910.6337, 52, 0, 4141.026, 4157.436, 4145.641, 4150.256, 4118.974, 0, 0, []
1629356910.6415, 53, 0, 4132.821, 4257.436, 4128.205, 4142.051, 4119.487, 0, 0, []
1629356910.6494, 54, 0, 4104.615, 4316.923, 4108.205, 4113.333, 4086.154, 0, 0, []
1629356910.6573, 55, 0, 4124.103, 4359.487, 4121.026, 4132.308, 4097.436, 0, 0, []
1629356910.665, 56, 0, 4158.462, 4395.897, 4157.949, 4171.282, 4130.769, 0, 0, []
1629356910.6728, 57, 0, 4149.231, 4391.795, 4135.385, 4162.564, 4115.897, 0, 0, []
1629356910.6807, 58, 0, 4138.462, 4436.41, 4126.667, 4152.308, 4106.154, 0, 0, []
1629356910.6885, 59, 0, 4150.769, 4476.41, 4155.897, 4169.231, 4126.667, 0, 0, []
1629356910.6965, 60, 0, 4141.026, 4342.564, 4126.667, 4154.872, 4117.436, 0, 0, []
1629356910.7043, 61, 0, 4135.897, 4175.897, 4119.487, 4142.051, 4104.103, 0, 0, []
1629356910.7123, 62, 0, 4146.667, 4175.385, 4130.769, 4158.462, 4113.846, 0, 0, []
1629356910.7202, 63, 0, 4132.821, 4215.897, 4117.436, 4150.769, 4108.205, 0, 0, []
1629356910.7282, 64, 0, 4124.615, 4098.974, 4122.051, 4135.897, 4102.051, 450, 0, []
1629356910.7361, 65, 0, 4135.385, 3929.231, 4122.051, 4140, 4103.59, 450, 0, []
1629356910.744, 66, 0, 4136.41, 3927.692, 4131.795, 4145.128, 4103.59, 16188, 0, []
1629356910.7519, 67, 0, 4135.897, 4005.641, 4123.077, 4137.949, 4109.231, 450, 0, []
1629356910.7599, 68, 0, 4145.641, 4017.436, 4115.385, 4137.436, 4122.051, 16186, 0, []
1629356910.7678, 69, 0, 4157.949, 4063.59, 4143.59, 4153.333, 4146.667, 450, 0, []
1629356910.7756, 70, 0, 4166.154, 4189.231, 4142.051, 4161.026, 4163.59, 16136, 0, []
1629356910.7834, 71, 0, 4172.821, 4226.667, 4141.538, 4163.077, 4158.974, 450, 0, []
1629356910.7912, 72, 0, 4174.359, 4144.615, 4140.513, 4164.615, 4151.282, 450, 0, []
1629356910.7991, 73, 0, 4166.667, 4061.026, 4129.744, 4156.41, 4152.308, 16169, 0, []
1629356910.8069, 74, 0, 4157.949, 4001.026, 4136.923, 4148.718, 4151.282, 450, 0, []
1629356910.8149, 75, 0, 4158.974, 3984.615, 4129.744, 4148.718, 4148.205, 16196, 0, []
1629356910.8227, 76, 0, 4165.128, 4063.077, 4127.692, 4148.718, 4151.282, 450, 0, []
1629356910.8307, 77, 0, 4155.897, 4171.282, 4113.846, 4136.923, 4143.59, 450, 0, []
1629356910.8386, 78, 0, 4146.667, 4216.923, 4110.769, 4132.308, 4137.436, 450, 0, []
1629356910.8466, 79, 0, 4170.769, 4177.949, 4156.923, 4155.897, 4163.59, 16196, 0, []
1629356910.8545, 80, 0, 4195.897, 4125.128, 4152.821, 4170.256, 4184.103, 450, 0, []
1629356910.8624, 81, 0, 4189.231, 4136.41, 4132.821, 4165.641, 4182.564, 450, 0, []
1629356910.8703, 82, 0, 4185.128, 4146.154, 4147.179, 4170.256, 4189.744, 450, 0, []
1629356910.8783, 83, 0, 4195.385, 4093.333, 4146.667, 4173.333, 4193.333, 16196, 0, []
1629356910.8862, 84, 0, 4200, 4082.564, 4140.513, 4163.59, 4185.641, 450, 0, []
1629356910.8942, 85, 0, 4198.462, 4114.359, 4124.103, 4158.462, 4187.179, 450, 0, []
1629356910.902, 86, 0, 4207.179, 4108.718, 4132.821, 4162.564, 4204.615, 450, 0, []
1629356910.9098, 87, 0, 4224.103, 4115.897, 4140, 4160.513, 4218.974, 16196, 0, []
1629356910.9177, 88, 0, 4241.538, 4092.308, 4114.872, 4153.846, 4230.769, 450, 0, []
1629356910.9255, 89, 0, 4281.538, 3987.692, 4127.692, 4161.026, 4269.744, 450, 0, []
1629356910.9334, 90, 0, 4349.231, 3948.205, 4138.974, 4171.282, 4327.692, 450, 0, []
1629356910.9411, 91, 0, 4407.692, 3970.769, 4138.974, 4172.821, 4370.769, 16196, 0, []
1629356910.949, 92, 0, 4431.282, 3969.744, 4137.436, 4167.692, 4391.795, 450, 0, []
1629356910.9568, 93, 0, 4432.308, 3965.641, 4122.051, 4158.974, 4397.949, 450, 0, []
1629356910.9647, 94, 0, 4422.564, 3941.026, 4133.846, 4146.154, 4391.282, 450, 0, []
1629356910.9725, 95, 0, 4421.538, 3940.513, 4133.333, 4153.333, 4387.692, 16196, 0, []
1629356910.9804, 96, 0, 4426.667, 4028.205, 4131.795, 4173.333, 4385.641, 450, 0, []
1629356910.9883, 97, 0, 4410.256, 4048.718, 4145.128, 4173.333, 4365.128, 450, 0, []
1629356910.9962, 98, 0, 4385.641, 3928.718, 4134.872, 4161.538, 4335.897, 450, 0, []
1629356911.004, 99, 0, 4371.282, 3924.103, 4149.231, 4163.59, 4327.179, 16196, 0, []
1629356911.012, 100, 0, 4353.846, 4069.744, 4154.359, 4164.103, 4320, 450, 0, []
1629356911.0198, 101, 0, 4330.769, 4156.41, 4144.103, 4154.359, 4300, 450, 0, []
1629356911.0278, 102, 0, 4321.026, 4242.051, 4163.077, 4161.026, 4288.718, 450, 0, []
1629356911.0357, 103, 0, 4304.615, 4355.897, 4159.487, 4168.205, 4272.821, 16196, 0, []
1629356911.0437, 104, 0, 4275.385, 4387.179, 4152.308, 4160, 4249.231, 450, 0, []
1629356911.0516, 105, 0, 4260, 4400, 4139.487, 4149.744, 4236.41, 450, 0, []
1629356911.0595, 106, 0, 4255.897, 4413.333, 4125.641, 4141.026, 4227.179, 450, 0, []
1629356911.0674, 107, 0, 4255.897, 4325.128, 4141.538, 4144.615, 4227.179, 16196, 0, []
1629356911.0752, 108, 0, 4243.077, 4281.026, 4131.795, 4141.538, 4222.051, 450, 0, []
1629356911.0831, 109, 0, 4220, 4360.513, 4126.667, 4129.231, 4200.513, 450, 0, []
1629356911.0909, 110, 0, 4225.641, 4353.333, 4142.051, 4138.974, 4206.667, 450, 0, []
1629356911.0987, 111, 0, 4246.667, 4316.41, 4155.897, 4163.077, 4235.897, 16196, 0, []
1629356911.1065, 112, 0, 4232.308, 4360.513, 4157.436, 4151.282, 4224.615, 450, 0, []
1629356911.1144, 113, 0, 4211.282, 4257.949, 4127.179, 4122.051, 4193.846, 450, 0, []
1629356911.1222, 114, 0, 4230.256, 3999.487, 4144.103, 4145.641, 4215.385, 450, 0, []
1629356911.1301, 115, 0, 4247.179, 3895.385, 4166.154, 4180, 4246.154, 16196, 0, []
1629356911.1378, 116, 0, 4224.615, 3955.897, 4124.103, 4157.949, 4218.974, 450, 0, []
1629356911.1458, 117, 0, 4205.128, 4015.897, 4101.538, 4132.308, 4186.154, 450, 0, []
1629356911.1537, 118, 0, 4205.641, 4002.564, 4100.513, 4137.949, 4190.256, 450, 0, []
1629356911.1617, 119, 0, 4190.769, 3893.846, 4104.615, 4130.769, 4186.154, 16196, 0, []
1629356911.1696, 120, 0, 4181.538, 3857.949, 4106.667, 4122.051, 4175.385, 450, 0, []
1629356911.1775, 121, 0, 4205.641, 3961.538, 4115.897, 4151.795, 4189.744, 450, 0, []
1629356911.1854, 122, 0, 4206.667, 4001.026, 4141.538, 4169.231, 4192.821, 450, 0, []
1629356911.1934, 123, 0, 4182.051, 4026.667, 4120, 4144.615, 4173.846, 16196, 0, []
1629356911.2013, 124, 0, 4195.897, 4157.949, 4121.026, 4145.128, 4188.718, 450, 0, []
1629356911.2093, 125, 0, 4227.179, 4174.359, 4154.359, 4174.359, 4215.385, 450, 0, []
1629356911.2171, 126, 0, 4211.282, 4045.641, 4131.282, 4161.538, 4193.846, 450, 0, []
1629356911.2251, 127, 0, 4186.154, 3956.923, 4121.026, 4135.897, 4172.821, 16196, 0, []
1629356911.233, 128, 0, 4194.359, 3863.077, 4120, 4141.026, 4182.564, 450, 0, []
1629356911.2408, 0, 0, 4208.718, 3806.154, 4111.282, 4152.821, 4184.103, 450, 0, []
1629356911.2487, 1, 0, 4207.692, 3864.615, 4115.897, 4152.308, 4175.385, 450, 0, []
1629356911.2564, 2, 0, 4192.821, 3897.949, 4106.667, 4140, 4167.179, 16188, 0, []
1629356911.2643, 3, 0, 4192.821, 3885.641, 4125.128, 4140, 4174.872, 450, 0, []
1629356911.2721, 4, 0, 4207.692, 3884.615, 4130.256, 4149.744, 4186.667, 16177, 0, []
1629356911.28, 5, 0, 4213.333, 3902.051, 4121.538, 4150.256, 4187.179, 450, 0, []
1629356911.2878, 6, 0, 4217.436, 4006.154, 4140.513, 4151.282, 4196.41, 16133, 0, []
1629356911.2957, 7, 0, 4215.385, 4107.179, 4131.795, 4151.795, 4201.538, 450, 0, []
1629356911.3036, 8, 0, 4220, 4033.333, 4122.564, 4154.872, 4214.872, 450, 0, []
1629356911.3115, 9, 0, 4246.154, 3911.282, 4128.718, 4167.692, 4263.077, 16166, 0, []
1629356911.3193, 10, 0, 4274.359, 3904.615, 4139.487, 4184.103, 4313.846, 450, 0, []
1629356911.3273, 11, 0, 4280, 3906.667, 4134.872, 4177.436, 4333.333, 16193, 0, []
1629356911.3351, 12, 0, 4306.667, 3902.051, 4114.872, 4164.615, 4373.846, 450, 0, []
1629356911.3431, 13, 0, 4396.923, 3995.385, 4164.615, 4208.718, 4482.051, 450, 0, []
1629356911.351, 14, 0, 4468.205, 4110.769, 4198.974, 4257.949, 4560, 450, 0, []
1629356911.359, 15, 0, 4451.795, 4132.308, 4162.564, 4238.462, 4540.513, 16193, 0, []
1629356911.3669, 16, 0, 4412.308, 4064.103, 4147.692, 4210.256, 4502.051, 0, 0, []
1629356911.3748, 17, 0, 4390.769, 4007.692, 4137.436, 4206.154, 4476.923, 0, 0, []
1629356911.3827, 18, 0, 4369.744, 4049.231, 4144.103, 4200.513, 4445.641, 0, 0, []
1629356911.3905, 19, 0, 4350.769, 4124.615, 4153.846, 4193.333, 4422.564, 0, 0, []
1629356911.3984, 20, 0, 4323.077, 4126.154, 4128.718, 4175.897, 4389.744, 0, 0, []
1629356911.4062, 21, 0, 4294.359, 4078.462, 4122.564, 4168.718, 4351.282, 0, 0, []
1629356911.4141, 22, 0, 4308.205, 4097.436, 4141.538, 4203.59, 4357.436, 0, 0, []
1629356911.4218, 23, 0, 4324.103, 4153.846, 4168.205, 4231.282, 4373.333, 0, 0, []
1629356911.4297, 24, 0, 4286.154, 4165.641, 4154.872, 4206.667, 4333.846, 0, 0, []
1629356911.4375, 25, 0, 4242.564, 4092.308, 4122.564, 4183.077, 4283.077, 0, 0, []
1629356911.4454, 26, 0, 4235.385, 4038.462, 4139.487, 4193.333, 4275.897, 0, 0, []
1629356911.4532, 27, 0, 4232.821, 4110.256, 4138.462, 4198.974, 4270.256, 0, 0, []
1629356911.461, 28, 0, 4220, 4114.872, 4134.359, 4194.359, 4251.282, 0, 0, []
1629356911.4688, 29, 0, 4207.179, 4017.949, 4140, 4182.564, 4235.385, 0, 0, []
1629356911.4768, 30, 0, 4190.256, 4029.231, 4115.897, 4164.615, 4212.308, 0, 0, []
1629356911.4847, 31, 0, 4187.692, 4123.59, 4120, 4170.256, 4204.103, 0, 0, []
1629356911.4927, 32, 0, 4197.949, 4127.179, 4129.744, 4186.667, 4215.897, 0, 0, []
1629356911.5005, 33, 0, 4189.231, 4076.41, 4131.282, 4177.949, 4217.949, 0, 0, []
1629356911.5085, 34, 0, 4175.897, 4080.513, 4132.308, 4160.513, 4201.538, 0, 0, []
1629356911.5164, 35, 0, 4176.923, 4140, 4114.872, 4158.974, 4186.154, 0, 0, []
1629356911.5244, 36, 0, 4176.923, 4188.205, 4122.564, 4168.205, 4188.205, 0, 0, []
1629356911.5323, 37, 0, 4173.846, 4140, 4117.436, 4163.59, 4191.282, 0, 0, []
1629356911.5402, 38, 0, 4177.436, 4129.231, 4105.128, 4153.333, 4190.769, 0, 0, []
1629356911.5481, 39, 0, 4183.59, 4220.513, 4121.026, 4158.974, 4194.872, 0, 0, []
1629356911.5559, 40, 0, 4179.487, 4227.179, 4118.974, 4164.615, 4191.282, 0, 0, []
1629356911.5638, 41, 0, 4166.154, 4155.385, 4124.615, 4162.051, 4181.538, 0, 0, []
1629356911.5716, 42, 0, 4159.487, 4164.615, 4130.769, 4163.077, 4184.615, 0, 0, []
1629356911.5794, 43, 0, 4160, 4206.667, 4124.103, 4156.923, 4183.077, 0, 0, []
1629356911.5872, 44, 0, 4152.821, 4162.051, 4120, 4142.564, 4165.128, 0, 0, []
1629356911.5951, 45, 0, 4157.949, 4162.564, 4107.179, 4143.59, 4168.718, 0, 0, []
1629356911.6029, 46, 0, 4172.308, 4232.308, 4128.205, 4156.41, 4191.282, 0, 0, []
1629356911.6108, 47, 0, 4149.744, 4268.718, 4130.256, 4147.692, 4178.974, 0, 0, []
1629356911.6185, 48, 0, 4132.308, 4281.026, 4111.282, 4133.846, 4156.41, 0, 0, []
1629356911.6265, 49, 0, 4153.846, 4226.154, 4130.769, 4146.154, 4169.744, 0, 0, []
1629356911.6344, 50, 0, 4147.692, 4133.846, 4112.308, 4135.385, 4162.564, 0, 0, []
1629356911.6424, 51, 0, 4126.667, 4192.308, 4100.513, 4106.667, 4137.949, 0, 0, []
1629356911.6503, 52, 0, 4143.077, 4356.41, 4123.59, 4106.154, 4152.308, 0, 0, []
1629356911.6581, 53, 0, 4147.692, 4371.795, 4114.872, 4100.513, 4164.103, 0, 0, []
1629356911.666, 54, 0, 4144.615, 4298.462, 4119.487, 4105.128, 4165.641, 0, 0, []
1629356911.6739, 55, 0, 4163.077, 4279.487, 4127.179, 4136.41, 4176.41, 0, 0, []
1629356911.6819, 56, 0, 4145.128, 4180, 4108.718, 4133.333, 4156.41, 0, 0, []
1629356911.6899, 57, 0, 4114.872, 4125.128, 4092.308, 4109.744, 4130.256, 0, 0, []
1629356911.6977, 58, 0, 4128.205, 4301.538, 4102.564, 4118.974, 4139.487, 0, 0, []
1629356911.7055, 59, 0, 4143.59, 4452.821, 4115.897, 4122.564, 4147.179, 0, 0, []
1629356911.7134, 60, 0, 4136.41, 4386.154, 4092.308, 4100, 4133.333, 0, 0, []
1629356911.7212, 61, 0, 4146.154, 4320, 4116.41, 4109.744, 4146.154, 0, 0, []
1629356911.7291, 62, 0, 4168.205, 4326.667, 4150.256, 4131.795, 4177.436, 0, 0, []
1629356911.7368, 63, 0, 4159.487, 4189.744, 4105.641, 4103.59, 4169.744, 0, 0, []
1629356911.7447, 64, 0, 4132.821, 4022.051, 4077.949, 4074.359, 4138.462, 450, 0, []
1629356911.7525, 65, 0, 4127.179, 4034.359, 4084.103, 4093.846, 4129.744, 450, 0, []
1629356911.7604, 66, 0, 4132.308, 4067.692, 4093.846, 4116.923, 4138.462, 16185, 0, []
1629356911.7682, 67, 0, 4122.564, 4087.692, 4093.333, 4108.205, 4135.385, 450, 0, []
1629356911.7761, 68, 0, 4126.667, 4165.641, 4087.179, 4109.744, 4138.462, 16175, 0, []
1629356911.784, 69, 0, 4146.667, 4145.128, 4115.385, 4134.872, 4157.436, 450, 0, []
1629356911.792, 70, 0, 4137.949, 3992.821, 4101.026, 4120.513, 4146.667, 16128, 0, []
1629356911.7999, 71, 0, 4111.282, 3958.462, 4073.333, 4077.436, 4112.821, 450, 0, []
1629356911.8079, 72, 0, 4106.154, 4038.974, 4089.231, 4067.179, 4108.718, 450, 0, []
1629356911.8157, 73, 0, 4113.333, 4029.744, 4087.179, 4083.077, 4122.564, 16166, 0, []
1629356911.8237, 74, 0, 4106.154, 3974.872, 4085.128, 4095.897, 4114.359, 450, 0, []
1629356911.8316, 75, 0, 4094.359, 3989.744, 4074.872, 4101.026, 4092.308, 16192, 0, []
1629356911.8394, 76, 0, 4107.692, 4023.59, 4072.308, 4118.974, 4097.436, 450, 0, []
1629356911.8473, 77, 0, 4136.41, 4013.846, 4098.974, 4142.051, 4129.231, 450, 0, []
1629356911.855, 78, 0, 4138.462, 3996.923, 4095.897, 4131.282, 4141.026, 450, 0, []
1629356911.8629, 79, 0, 4125.641, 4052.821, 4082.564, 4112.308, 4132.821, 16192, 0, []
1629356911.8707, 80, 0, 4112.821, 4168.718, 4056.923, 4101.538, 4114.359, 450, 0, []
1629356911.8786, 81, 0, 4100, 4209.744, 4048.205, 4084.103, 4092.308, 450, 0, []
1629356911.8864, 82, 0, 4107.692, 4137.949, 4084.615, 4088.205, 4096.41, 450, 0, []
1629356911.8942, 83, 0, 4129.231, 4157.949, 4095.385, 4118.462, 4117.949, 16192, 0, []
1629356911.902, 84, 0, 4147.179, 4245.641, 4112.308, 4138.974, 4139.487, 450, 0, []
1629356911.9099, 85, 0, 4164.103, 4217.436, 4130.769, 4143.077, 4161.026, 450, 0, []
1629356911.9177, 86, 0, 4167.692, 4184.615, 4113.333, 4140, 4162.564, 450, 0, []
1629356911.9256, 87, 0, 4153.846, 4239.487, 4109.744, 4134.359, 4145.641, 16192, 0, []
1629356911.9333, 88, 0, 4137.436, 4236.41, 4091.795, 4115.385, 4132.821, 450, 0, []
1629356911.9413, 89, 0, 4128.205, 4222.051, 4078.462, 4094.872, 4126.154, 450, 0, []
1629356911.9492, 90, 0, 4133.333, 4271.795, 4090.256, 4095.897, 4123.59, 450, 0, []
1629356911.9572, 91, 0, 4140, 4188.718, 4087.179, 4108.205, 4128.205, 16192, 0, []
1629356911.9651, 92, 0, 4146.154, 4079.487, 4098.462, 4121.538, 4145.128, 450, 0, []
1629356911.973, 93, 0, 4160.513, 4166.667, 4105.641, 4132.821, 4158.462, 450, 0, []
1629356911.9809, 94, 0, 4161.026, 4200.513, 4107.692, 4133.846, 4155.897, 450, 0, []
1629356911.9889, 95, 0, 4153.333, 4102.564, 4102.564, 4124.615, 4150.256, 16192, 0, []
1629356911.9968, 96, 0, 4160, 4150.769, 4085.128, 4112.821, 4145.128, 450, 0, []
1629356912.0048, 97, 0, 4161.026, 4276.923, 4093.333, 4109.231, 4142.051, 450, 0, []
1629356912.0126, 98, 0, 4146.154, 4249.231, 4083.077, 4106.667, 4146.154, 450, 0, []
1629356912.0206, 99, 0, 4139.487, 4243.59, 4077.949, 4103.077, 4147.692, 16192, 0, []
1629356912.0285, 100, 0, 4151.282, 4320, 4086.154, 4105.128, 4148.205, 450, 0, []
1629356912.0363, 101, 0, 4160, 4280.513, 4068.718, 4108.718, 4158.462, 450, 0, []
1629356912.0442, 102, 0, 4157.436, 4217.949, 4087.179, 4110.256, 4171.282, 450, 0, []
1629356912.0519, 103, 0, 4184.615, 4208.205, 4105.128, 4108.205, 4192.821, 16192, 0, []
1629356912.0598, 104, 0, 4276.41, 4193.846, 4110.256, 4121.538, 4259.487, 450, 0, []
1629356912.0676, 105, 0, 4378.974, 4209.744, 4124.615, 4136.41, 4343.077, 450, 0, []
1629356912.0755, 106, 0, 4430.769, 4172.821, 4101.538, 4119.487, 4373.846, 450, 0, []
1629356912.0833, 107, 0, 4451.282, 4031.795, 4083.59, 4093.333, 4365.641, 16192, 0, []
1629356912.0912, 108, 0, 4470.769, 3982.564, 4073.846, 4081.026, 4350.256, 450, 0, []
1629356912.0991, 109, 0, 4472.821, 4044.615, 4070.256, 4067.692, 4317.436, 450, 0, []
1629356912.1071, 110, 0, 4447.179, 4008.718, 4075.897, 4051.795, 4271.795, 450, 0, []
1629356912.115, 111, 0, 4403.077, 3966.154, 4055.897, 4042.564, 4231.282, 16192, 0, []
1629356912.123, 112, 0, 4371.795, 4085.128, 4061.538, 4052.821, 4212.308, 450, 0, []
1629356912.1309, 113, 0, 4366.154, 4226.667, 4074.359, 4071.282, 4208.718, 450, 0, []
1629356912.1388, 114, 0, 4353.846, 4245.128, 4078.974, 4077.436, 4205.128, 450, 0, []
1629356912.1467, 115, 0, 4329.231, 4270.256, 4097.949, 4079.487, 4199.487, 16192, 0, []
1629356912.1547, 116, 0, 4303.59, 4381.026, 4087.692, 4078.974, 4177.436, 450, 0, []
1629356912.1626, 117, 0, 4273.846, 4356.923, 4083.59, 4071.795, 4145.641, 450, 0, []
1629356912.1704, 118, 0, 4248.205, 4246.154, 4080, 4065.641, 4133.846, 450, 0, []
1629356912.1782, 119, 0, 4253.846, 4278.974, 4070.769, 4074.872, 4139.487, 16192, 0, []
1629356912.186, 120, 0, 4280, 4322.564, 4098.974, 4096.41, 4154.872, 450, 0, []
1629356912.1939, 121, 0, 4280.513, 4285.128, 4110.769, 4100, 4164.103, 450, 0, []
1629356912.2017, 122, 0, 4261.538, 4302.051, 4111.282, 4092.308, 4155.385, 450, 0, []
1629356912.2096, 123, 0, 4250.256, 4303.077, 4108.718, 4086.667, 4145.641, 16192, 0, []
1629356912.2173, 124, 0, 4241.026, 4195.385, 4092.308, 4080.513, 4146.154, 450, 0, []
1629356912.2252, 125, 0, 4226.667, 4175.897, 4091.282, 4080, 4142.564, 450, 0, []
1629356912.233, 126, 0, 4208.718, 4242.564, 4068.205, 4072.308, 4118.974, 450, 0, []
1629356912.241, 127, 0, 4193.333, 4240.513, 4055.897, 4052.308, 4098.974, 16192, 0, []
1629356912.2489, 128, 0, 4195.385, 4255.385, 4072.821, 4046.154, 4099.487, 450, 0, []
1629356912.2568, 0, 0, 4213.846, 4317.436, 4082.051, 4064.103, 4109.744, 450, 0, []
1629356912.2647, 1, 0, 4234.359, 4369.744, 4104.615, 4087.692, 4131.795, 450, 0, []
1629356912.2727, 2, 0, 4250.769, 4404.103, 4107.692, 4103.59, 4154.359, 16182, 0, []
1629356912.2806, 3, 0, 4251.282, 4373.846, 4102.051, 4106.154, 4146.667, 450, 0, []
1629356912.2886, 4, 0, 4236.923, 4322.051, 4107.692, 4097.949, 4129.231, 16196, 0, []
1629356912.2964, 5, 0, 4231.795, 4375.385, 4101.026, 4088.205, 4127.179, 450, 0, []
1629356912.3044, 6, 0, 4238.462, 4477.436, 4107.179, 4080.513, 4122.051, 16171, 0, []
1629356912.3123, 7, 0, 4235.897, 4474.359, 4092.308, 4069.231, 4104.615, 450, 0, []
1629356912.3203, 8, 0, 4227.692, 4392.308, 4088.205, 4065.641, 4103.077, 450, 0, []
1629356912.3282, 9, 0, 4238.462, 4337.436, 4108.205, 4080, 4120.513, 16166, 0, []
1629356912.3359, 10, 0, 4255.897, 4349.744, 4093.846, 4093.333, 4126.154, 450, 0, []
1629356912.3438, 11, 0, 4259.487, 4401.538, 4100, 4106.154, 4131.282, 16193, 0, []
1629356912.3516, 12, 0, 4254.359, 4429.231, 4100, 4110.769, 4136.923, 450, 0, []
1629356912.3595, 13, 0, 4240.513, 4463.59, 4075.385, 4096.41, 4120.513, 450, 0, []
1629356912.3673, 14, 0, 4232.308, 4544.615, 4084.103, 4092.821, 4108.718, 450, 0, []
1629356912.3751, 15, 0, 4244.103, 4527.692, 4093.333, 4106.667, 4120, 16193, 0, []
1629356912.3829, 16, 0, 4255.385, 4322.564, 4097.436, 4120.513, 4134.872, 0, 0, []
1629356912.3908, 17, 0, 4256.41, 4171.795, 4097.436, 4125.641, 4139.487, 0, 0, []
1629356912.3986, 18, 0, 4265.641, 4234.359, 4105.128, 4127.179, 4144.103, 0, 0, []
1629356912.4066, 19, 0, 4278.974, 4258.974, 4121.538, 4134.359, 4148.205, 0, 0, []
1629356912.4144, 20, 0, 4268.205, 4168.718, 4105.641, 4134.872, 4136.41, 0, 0, []
1629356912.4224, 21, 0, 4260, 4158.462, 4103.077, 4125.128, 4125.128, 0, 0, []
1629356912.4303, 22, 0, 4279.487, 4191.795, 4102.564, 4106.667, 4132.308, 0, 0, []
1629356912.4383, 23, 0, 4287.692, 4166.154, 4091.282, 4095.385, 4140, 0, 0, []
1629356912.4462, 24, 0, 4278.974, 4224.615, 4106.667, 4112.308, 4144.103, 0, 0, []
1629356912.4541, 25, 0, 4285.128, 4336.41, 4108.718, 4137.949, 4149.744, 0, 0, []
1629356912.462, 26, 0, 4281.026, 4292.308, 4100.513, 4133.333, 4140.513, 0, 0, []
1629356912.47, 27, 0, 4250.256, 4236.923, 4078.462, 4107.179, 4116.41, 0, 0, []
1629356912.4779, 28, 0, 4251.282, 4268.205, 4074.872, 4108.718, 4122.051, 0, 0, []
1629356912.4857, 29, 0, 4271.282, 4256.923, 4110.256, 4128.718, 4143.077, 0, 0, []
1629356912.4935, 30, 0, 4250.769, 4255.897, 4095.385, 4115.385, 4132.308, 0, 0, []
1629356912.5013, 31, 0, 4234.359, 4326.667, 4099.487, 4096.923, 4128.205, 0, 0, []
1629356912.5092, 32, 0, 4260.513, 4362.051, 4138.974, 4117.436, 4157.949, 0, 0, []
1629356912.517, 33, 0, 4276.923, 4350.256, 4130.256, 4142.564, 4178.462, 0, 0, []
1629356912.5249, 34, 0, 4263.59, 4358.462, 4119.487, 4139.487, 4175.897, 0, 0, []
1629356912.5326, 35, 0, 4244.103, 4374.359, 4103.59, 4120.513, 4155.897, 0, 0, []
1629356912.5406, 36, 0, 4238.462, 4411.282, 4102.564, 4125.641, 4146.154, 0, 0, []
1629356912.5485, 37, 0, 4260.513, 4457.949, 4129.744, 4163.077, 4180, 0, 0, []
1629356912.5565, 38, 0, 4274.872, 4451.282, 4126.154, 4177.436, 4197.949, 0, 0, []
1629356912.5644, 39, 0, 4257.949, 4386.667, 4117.949, 4154.359, 4175.385, 0, 0, []
1629356912.5723, 40, 0, 4253.333, 4381.026, 4114.359, 4142.051, 4172.821, 0, 0, []
1629356912.5802, 41, 0, 4273.333, 4437.949, 4124.615, 4154.359, 4190.769, 0, 0, []
1629356912.5882, 42, 0, 4275.897, 4397.949, 4133.333, 4153.333, 4186.154, 0, 0, []
1629356912.5961, 43, 0, 4255.385, 4285.641, 4116.923, 4140.513, 4169.231, 0, 0, []
1629356912.6041, 44, 0, 4247.692, 4265.128, 4131.282, 4154.359, 4167.179, 0, 0, []
1629356912.6119, 45, 0, 4240.513, 4350.256, 4119.487, 4160, 4160, 0, 0, []
1629356912.6199, 46, 0, 4221.538, 4420, 4089.744, 4143.077, 4148.205, 0, 0, []
1629356912.6278, 47, 0, 4224.615, 4419.487, 4104.103, 4150.256, 4160, 0, 0, []
1629356912.6356, 48, 0, 4235.385, 4411.795, 4094.359, 4151.795, 4162.051, 0, 0, []
1629356912.6435, 49, 0, 4227.692, 4517.436, 4086.667, 4128.205, 4154.872, 0, 0, []
1629356912.6512, 50, 0, 4229.744, 4563.077, 4101.538, 4127.179, 4169.231, 0, 0, []
1629356912.6591, 51, 0, 4244.615, 4403.59, 4108.205, 4144.103, 4178.462, 0, 0, []
1629356912.6669, 52, 0, 4246.154, 4378.462, 4113.333, 4147.179, 4172.821, 0, 0, []
1629356912.6749, 53, 0, 4233.333, 4475.897, 4102.051, 4143.59, 4173.333, 0, 0, []
1629356912.6828, 54, 0, 4224.103, 4422.564, 4101.538, 4143.077, 4172.821, 0, 0, []
1629356912.6907, 55, 0, 4221.026, 4389.231, 4091.795, 4136.41, 4164.103, 0, 0, []
1629356912.6986, 56, 0, 4225.641, 4495.385, 4084.103, 4135.385, 4170.769, 0, 0, []
1629356912.7065, 57, 0, 4236.41, 4506.667, 4107.179, 4143.077, 4187.179, 0, 0, []
1629356912.7143, 58, 0, 4241.026, 4396.923, 4104.103, 4144.103, 4183.077, 0, 0, []
1629356912.7223, 59, 0, 4230.256, 4378.974, 4102.564, 4148.205, 4173.333, 0, 0, []
1629356912.7302, 60, 0, 4217.436, 4456.41, 4102.564, 4150.769, 4171.282, 0, 0, []
1629356912.7381, 61, 0, 4217.436, 4506.667, 4083.077, 4142.051, 4167.692, 0, 0, []
1629356912.746, 62, 0, 4220, 4459.487, 4083.59, 4140, 4168.718, 0, 0, []
1629356912.754, 63, 0, 4207.179, 4390.256, 4065.128, 4124.103, 4163.077, 0, 0, []
1629356912.7619, 64, 0, 4206.154, 4466.667, 4066.667, 4105.641, 4158.462, 450, 0, []
1629356912.7698, 65, 0, 4226.154, 4513.846, 4093.846, 4123.077, 4174.359, 450, 0, []
1629356912.7777, 66, 0, 4234.872, 4369.744, 4092.308, 4144.615, 4188.718, 16182, 0, []
1629356912.7857, 67, 0, 4233.333, 4301.026, 4098.974, 4150.769, 4190.256, 450, 0, []
1629356912.7936, 68, 0, 4234.872, 4389.231, 4094.359, 4154.359, 4187.179, 16161, 0, []
1629356912.8016, 69, 0, 4230.769, 4339.487, 4084.103, 4148.205, 4184.615, 450, 0, []
1629356912.8094, 70, 0, 4227.692, 4168.718, 4088.718, 4127.692, 4186.667, 16135, 0, []
1629356912.8174, 71, 0, 4237.949, 4131.795, 4093.333, 4123.59, 4188.718, 450, 0, []
1629356912.8254, 72, 0, 4245.128, 4225.128, 4107.692, 4135.897, 4185.128, 450, 0, []
1629356912.8333, 73, 0, 4234.359, 4311.795, 4088.718, 4128.718, 4175.897, 16165, 0, []
1629356912.8413, 74, 0, 4223.59, 4331.282, 4073.333, 4117.949, 4166.667, 450, 0, []
1629356912.8492, 75, 0, 4233.846, 4304.103, 4087.692, 4130.769, 4169.231, 16193, 0, []
1629356912.8572, 76, 0, 4245.641, 4346.154, 4080, 4138.974, 4185.128, 450, 0, []
1629356912.8651, 77, 0, 4237.436, 4453.333, 4084.615, 4130.769, 4194.872, 450, 0, []
1629356912.8731, 78, 0, 4222.564, 4507.692, 4078.462, 4118.974, 4179.487, 450, 0, []
1629356912.881, 79, 0, 4206.154, 4435.897, 4058.974, 4104.615, 4162.051, 16193, 0, []
1629356912.8889, 80, 0, 4216.41, 4278.974, 4083.59, 4120.513, 4188.718, 450, 0, []
1629356912.8969, 81, 0, 4255.897, 4230.256, 4106.667, 4162.051, 4228.718, 450, 0, []
1629356912.9048, 82, 0, 4266.667, 4295.897, 4114.359, 4176.41, 4226.154, 450, 0, []
1629356912.9128, 83, 1, 4259.715, 4279.145, 4111.738, 4171.909, 4220.342, 2199.222, 0, []
1629356912.9207, 84, 1, 4252.764, 4262.393, 4109.117, 4167.407, 4214.53, 3948.444, 0, []
1629356912.9286, 85, 1, 4245.812, 4245.641, 4106.496, 4162.906, 4208.718, 5697.667, 0, []
1629356912.9364, 86, 1, 4238.86, 4228.889, 4103.875, 4158.405, 4202.906, 7446.889, 0, []
1629356912.9443, 87, 1, 4231.909, 4212.137, 4101.254, 4153.903, 4197.094, 9196.111, 0, []
1629356912.9522, 88, 1, 4224.957, 4195.385, 4098.632, 4149.402, 4191.282, 10945.333, 0, []
1629356912.9601, 89, 1, 4218.006, 4178.632, 4096.011, 4144.9, 4185.47, 12694.556, 0, []
1629356912.968, 90, 1, 4211.054, 4161.88, 4093.39, 4140.399, 4179.658, 14443.778, 0, []
1629356912.9758, 91, 0, 4204.103, 4145.128, 4090.769, 4135.897, 4173.846, 16193, 0, []
1629356912.9838, 92, 0, 4203.59, 4214.359, 4096.41, 4137.436, 4170.769, 450, 0, []
1629356912.9917, 93, 0, 4202.051, 4263.59, 4082.564, 4129.231, 4168.718, 450, 0, []
1629356912.9996, 94, 0, 4205.128, 4292.821, 4056.41, 4122.564, 4171.795, 450, 0, []
1629356913.0076, 95, 0, 4216.41, 4283.077, 4076.923, 4131.795, 4186.154, 16193, 0, []
1629356913.0154, 96, 0, 4218.462, 4254.359, 4078.462, 4132.308, 4187.179, 450, 0, []
1629356913.0234, 97, 0, 4207.692, 4171.795, 4072.308, 4125.128, 4174.872, 450, 0, []
1629356913.0313, 98, 0, 4210.769, 4058.974, 4087.179, 4134.359, 4182.051, 450, 0, []
1629356913.0393, 99, 0, 4223.077, 4062.564, 4091.795, 4134.872, 4195.385, 16193, 0, []
1629356913.0472, 100, 0, 4218.462, 4158.974, 4096.41, 4122.051, 4183.59, 450, 0, []
1629356913.0551, 101, 0, 4206.154, 4204.615, 4077.436, 4123.077, 4165.128, 450, 0, []
1629356913.063, 102, 0, 4215.385, 4167.179, 4080.513, 4145.128, 4184.615, 450, 0, []
1629356913.071, 103, 0, 4230.256, 4145.128, 4093.333, 4151.282, 4207.179, 16193, 0, []
1629356913.079, 104, 0, 4222.051, 4224.103, 4068.718, 4129.231, 4188.718, 450, 0, []
1629356913.0869, 105, 0, 4223.59, 4304.103, 4086.667, 4128.718, 4188.205, 450, 0, []
1629356913.0947, 106, 0, 4244.615, 4316.923, 4113.846, 4151.282, 4211.282, 450, 0, []
1629356913.1027, 107, 0, 4246.154, 4353.333, 4111.795, 4156.41, 4210.256, 16193, 0, []
1629356913.1107, 108, 0, 4224.615, 4367.692, 4096.41, 4143.077, 4195.897, 450, 0, []
1629356913.1186, 109, 0, 4209.744, 4312.821, 4067.692, 4129.231, 4186.154, 450, 0, []
1629356913.1265, 110, 0, 4215.897, 4361.538, 4072.308, 4132.308, 4186.154, 450, 0, []
1629356913.1344, 111, 0, 4234.359, 4438.462, 4083.077, 4149.744, 4198.974, 16193, 0, []
1629356913.1423, 112, 0, 4235.897, 4323.077, 4097.949, 4158.462, 4204.615, 450, 0, []
1629356913.1503, 113, 0, 4222.564, 4255.385, 4122.564, 4148.205, 4192.308, 450, 0, []
1629356913.1582, 114, 0, 4229.744, 4337.949, 4112.308, 4136.923, 4186.667, 450, 0, []
1629356913.1662, 115, 0, 4238.974, 4283.59, 4102.051, 4137.949, 4192.308, 16193, 0, []
1629356913.1741, 116, 1, 4234.929, 4274.359, 4101.652, 4134.986, 4190.484, 14443.778, 0, []
1629356913.182, 117, 1, 4230.883, 4265.128, 4101.254, 4132.023, 4188.661, 12694.556, 0, []
1629356913.1899, 118, 1, 4226.838, 4255.897, 4100.855, 4129.06, 4186.838, 10945.333, 0, []
1629356913.1978, 119, 1, 4222.792, 4246.667, 4100.456, 4126.097, 4185.014, 9196.111, 0, []
1629356913.2057, 120, 1, 4218.746, 4237.436, 4100.057, 4123.134, 4183.191, 7446.889, 0, []
1629356913.2135, 121, 1, 4214.701, 4228.205, 4099.658, 4120.171, 4181.368, 5697.667, 0, []
1629356913.2214, 122, 1, 4210.655, 4218.974, 4099.259, 4117.208, 4179.544, 3948.444, 0, []
1629356913.2293, 123, 1, 4206.61, 4209.744, 4098.86, 4114.245, 4177.721, 2199.222, 0, []
1629356913.2372, 124, 0, 4202.564, 4200.513, 4098.462, 4111.282, 4175.897, 450, 0, []
1629356913.2452, 125, 0, 4225.128, 4182.564, 4108.718, 4134.872, 4193.333, 450, 0, []
1629356913.2531, 126, 0, 4220.513, 4186.154, 4101.026, 4149.744, 4185.128, 450, 0, []
1629356913.261, 127, 0, 4192.308, 4225.128, 4080, 4136.923, 4163.077, 16193, 0, []
1629356913.2689, 128, 0, 4189.231, 4196.41, 4098.974, 4137.949, 4160, 450, 0, []
1629356913.2769, 0, 0, 4180, 4146.667, 4079.487, 4129.744, 4145.128, 450, 0, []
1629356913.2849, 1, 0, 4164.103, 4226.667, 4060.513, 4112.308, 4125.128, 450, 0, []
1629356913.2927, 2, 0, 4174.359, 4297.436, 4072.821, 4109.231, 4137.436, 16184, 0, []
1629356913.3006, 3, 0, 4185.641, 4234.359, 4072.308, 4103.59, 4154.359, 450, 0, []
1629356913.3086, 4, 0, 4188.205, 4212.308, 4087.692, 4102.564, 4158.462, 16184, 0, []
1629356913.3165, 5, 0, 4194.872, 4250.769, 4088.205, 4113.333, 4160.513, 450, 0, []
1629356913.3245, 6, 0, 4200, 4222.051, 4091.282, 4124.615, 4170.769, 16125, 0, []
1629356913.3324, 7, 0, 4191.282, 4208.718, 4100, 4124.103, 4171.282, 450, 0, []
1629356913.3403, 8, 0, 4179.487, 4220, 4083.59, 4114.872, 4153.333, 450, 0, []
1629356913.3483, 9, 1, 4176.809, 4199.145, 4083.305, 4112.308, 4150.883, 16165, 0, []
1629356913.3562, 10, 1, 4174.131, 4178.291, 4083.02, 4109.744, 4148.433, 450, 0, []
1629356913.3641, 11, 1, 4171.453, 4157.436, 4082.735, 4107.179, 4145.983, 16193, 0, []
1629356913.3719, 12, 1, 4168.775, 4136.581, 4082.45, 4104.615, 4143.533, 450, 0, []
1629356913.3798, 13, 1, 4166.097, 4115.726, 4082.165, 4102.051, 4141.083, 450, 0, []
1629356913.3877, 14, 1, 4163.419, 4094.872, 4081.88, 4099.487, 4138.632, 450, 0, []
1629356913.3956, 15, 1, 4160.741, 4074.017, 4081.595, 4096.923, 4136.182, 16193, 0, []
1629356913.4035, 16, 1, 4158.063, 4053.162, 4081.311, 4094.359, 4133.732, 50, 0, []
1629356913.4113, 17, 0, 4155.385, 4032.308, 4081.026, 4091.795, 4131.282, 0, 0, []
1629356913.4193, 18, 1, 4158.632, 4047.009, 4083.134, 4097.037, 4134.188, 0, 0, []
1629356913.4272, 19, 1, 4161.88, 4061.709, 4085.242, 4102.279, 4137.094, 0, 0, []
1629356913.4351, 20, 1, 4165.128, 4076.41, 4087.35, 4107.521, 4140, 0, 0, []
1629356913.443, 21, 1, 4168.376, 4091.111, 4089.459, 4112.764, 4142.906, 0, 0, []
1629356913.4508, 22, 1, 4171.624, 4105.812, 4091.567, 4118.006, 4145.812, 0, 0, []
1629356913.4587, 23, 1, 4174.872, 4120.513, 4093.675, 4123.248, 4148.718, 0, 0, []
1629356913.4666, 24, 1, 4178.12, 4135.214, 4095.783, 4128.49, 4151.624, 0, 0, []
1629356913.4745, 25, 1, 4181.368, 4149.915, 4097.892, 4133.732, 4154.53, 0, 0, []
1629356913.4824, 26, 0, 4184.615, 4164.615, 4100, 4138.974, 4157.436, 0, 0, []
1629356913.4903, 27, 0, 4173.846, 4165.641, 4103.59, 4111.282, 4137.949, 0, 0, []
1629356913.4982, 28, 0, 4181.538, 4125.128, 4100.513, 4109.231, 4136.923, 0, 0, []
1629356913.5061, 29, 0, 4178.974, 4106.667, 4093.846, 4113.333, 4139.487, 0, 0, []
1629356913.514, 30, 0, 4168.718, 4112.308, 4087.692, 4104.615, 4137.949, 0, 0, []
1629356913.5219, 31, 0, 4185.128, 4086.667, 4090.769, 4114.359, 4148.205, 0, 0, []
1629356913.5298, 32, 0, 4203.59, 4075.385, 4117.949, 4137.949, 4152.821, 0, 0, []
1629356913.5377, 33, 0, 4186.667, 4092.308, 4100.513, 4132.308, 4135.897, 0, 0, []
1629356913.5456, 34, 0, 4161.026, 4063.077, 4081.026, 4114.872, 4127.692, 0, 0, []
1629356913.5536, 35, 0, 4164.103, 4008.205, 4090.256, 4114.872, 4133.333, 0, 0, []
1629356913.5615, 36, 0, 4164.615, 4009.231, 4086.667, 4110.256, 4122.051, 0, 0, []
1629356913.5694, 37, 0, 4157.436, 4071.795, 4102.051, 4103.59, 4108.718, 0, 0, []
1629356913.5773, 38, 0, 4163.59, 4125.641, 4097.949, 4107.179, 4111.282, 0, 0, []
1629356913.5853, 39, 0, 4164.103, 4111.282, 4083.077, 4107.692, 4115.385, 0, 0, []
1629356913.5932, 40, 0, 4160, 4081.538, 4086.667, 4111.282, 4118.974, 0, 0, []
1629356913.6011, 41, 0, 4167.692, 4085.128, 4082.051, 4120.513, 4124.615, 0, 0, []
1629356913.6089, 42, 0, 4179.487, 4107.179, 4097.949, 4130.769, 4136.923, 0, 0, []
1629356913.6168, 43, 0, 4173.333, 4118.974, 4082.564, 4116.923, 4133.333, 0, 0, []
1629356913.6247, 44, 0, 4152.821, 4090.256, 4058.462, 4086.667, 4110.256, 0, 0, []
1629356913.6326, 45, 0, 4151.795, 4051.282, 4080.513, 4085.641, 4112.821, 0, 0, []
1629356913.6406, 46, 0, 4174.872, 4097.949, 4091.795, 4106.667, 4140.513, 0, 0, []
1629356913.6485, 47, 0, 4192.308, 4185.641, 4102.051, 4120.513, 4157.436, 0, 0, []
1629356913.6564, 48, 0, 4184.103, 4161.026, 4086.667, 4115.385, 4147.692, 0, 0, []
1629356913.6644, 49, 0, 4165.128, 4091.795, 4068.718, 4104.615, 4133.846, 0, 0, []
1629356913.6724, 50, 1, 4164.615, 4106.04, 4072.593, 4106.952, 4134.188, 0, 0, []
1629356913.6803, 51, 1, 4164.103, 4120.285, 4076.467, 4109.288, 4134.53, 0, 0, []
1629356913.6881, 52, 1, 4163.59, 4134.53, 4080.342, 4111.624, 4134.872, 0, 0, []
1629356913.696, 53, 1, 4163.077, 4148.775, 4084.217, 4113.96, 4135.214, 0, 0, []
1629356913.7039, 54, 1, 4162.564, 4163.02, 4088.091, 4116.296, 4135.556, 0, 0, []
1629356913.7118, 55, 1, 4162.051, 4177.265, 4091.966, 4118.632, 4135.897, 0, 0, []
1629356913.7197, 56, 1, 4161.538, 4191.51, 4095.84, 4120.969, 4136.239, 0, 0, []
1629356913.7275, 57, 1, 4161.026, 4205.755, 4099.715, 4123.305, 4136.581, 0, 0, []
1629356913.7354, 58, 0, 4160.513, 4220, 4103.59, 4125.641, 4136.923, 0, 0, []
1629356913.7434, 59, 0, 4167.692, 4206.667, 4105.128, 4138.974, 4154.359, 0, 0, []
1629356913.7513, 60, 0, 4165.641, 4225.641, 4106.667, 4134.359, 4157.949, 0, 0, []
1629356913.7593, 61, 0, 4155.897, 4187.179, 4069.744, 4109.744, 4138.974, 0, 0, []
1629356913.7671, 62, 0, 4145.641, 4146.154, 4061.538, 4092.821, 4120.513, 0, 0, []
1629356913.775, 63, 0, 4159.487, 4204.103, 4093.333, 4106.154, 4141.538, 0, 0, []
1629356913.7828, 64, 0, 4181.538, 4247.692, 4100.513, 4124.103, 4169.744, 450, 0, []
1629356913.7906, 65, 0, 4165.641, 4194.359, 4090.256, 4110.256, 4144.615, 450, 0, []
1629356913.7985, 66, 0, 4145.128, 4128.718, 4065.128, 4094.359, 4107.692, 16188, 0, []
1629356913.8063, 67, 0, 4166.154, 4130.256, 4092.821, 4124.103, 4129.231, 450, 0, []
1629356913.8141, 68, 0, 4182.564, 4162.564, 4116.41, 4147.179, 4155.385, 16190, 0, []
1629356913.8219, 69, 0, 4166.667, 4120, 4085.641, 4125.641, 4144.103, 450, 0, []
1629356913.8298, 70, 0, 4157.949, 4031.795, 4089.744, 4104.615, 4132.308, 16131, 0, []
1629356913.8376, 71, 0, 4162.051, 4091.282, 4086.154, 4102.051, 4128.718, 450, 0, []
1629356913.8455, 72, 0, 4168.718, 4236.41, 4084.615, 4107.179, 4132.308, 450, 0, []
1629356913.8532, 73, 0, 4175.897, 4191.795, 4098.462, 4107.179, 4138.974, 16165, 0, []
1629356913.8611, 74, 0, 4167.179, 4108.205, 4089.231, 4096.41, 4130.256, 450, 0, []
1629356913.8689, 75, 0, 4161.026, 4257.436, 4098.974, 4101.026, 4125.641, 16194, 0, []
1629356913.8769, 76, 0, 4163.077, 4331.282, 4088.718, 4110.769, 4125.641, 450, 0, []
1629356913.8848, 77, 0, 4152.821, 4168.718, 4076.41, 4102.564, 4119.487, 450, 0, []
1629356913.8926, 78, 0, 4152.308, 4177.436, 4086.154, 4104.103, 4129.744, 450, 0, []
1629356913.9005, 79, 0, 4161.026, 4301.538, 4073.846, 4109.744, 4134.359, 16194, 0, []
1629356913.9085, 80, 0, 4153.846, 4247.692, 4081.026, 4102.051, 4123.077, 450, 0, []
1629356913.9165, 81, 0, 4147.692, 4235.385, 4078.974, 4095.897, 4122.051, 450, 0, []
1629356913.9244, 82, 0, 4148.205, 4367.692, 4073.333, 4095.385, 4125.641, 450, 0, []
1629356913.9322, 83, 0, 4138.462, 4410.256, 4076.41, 4089.231, 4115.385, 16194, 0, []
1629356913.9402, 84, 1, 4141.538, 4397.322, 4078.234, 4093.048, 4120.114, 14444.667, 0, []
1629356913.9481, 85, 1, 4144.615, 4384.387, 4080.057, 4096.866, 4124.843, 12695.333, 0, []
1629356913.956, 86, 1, 4147.692, 4371.453, 4081.88, 4100.684, 4129.573, 10946, 0, []
1629356913.9639, 87, 1, 4150.769, 4358.519, 4083.704, 4104.501, 4134.302, 9196.667, 0, []
1629356913.9717, 88, 1, 4153.846, 4345.584, 4085.527, 4108.319, 4139.031, 7447.333, 0, []
1629356913.9796, 89, 1, 4156.923, 4332.65, 4087.35, 4112.137, 4143.761, 5698, 0, []
1629356913.9875, 90, 1, 4160, 4319.715, 4089.174, 4115.954, 4148.49, 3948.667, 0, []
1629356913.9954, 91, 1, 4163.077, 4306.781, 4090.997, 4119.772, 4153.219, 2199.333, 0, []
1629356914.0033, 92, 0, 4166.154, 4293.846, 4092.821, 4123.59, 4157.949, 450, 0, []
1629356914.0112, 93, 0, 4141.538, 4210.256, 4082.051, 4097.949, 4124.615, 450, 0, []
1629356914.0191, 94, 0, 4151.795, 4140, 4071.795, 4107.692, 4124.103, 450, 0, []
1629356914.027, 95, 0, 4169.744, 4108.718, 4095.897, 4132.308, 4145.128, 16194, 0, []
1629356914.0349, 96, 0, 4163.59, 4107.692, 4101.026, 4123.077, 4141.538, 450, 0, []
1629356914.0428, 97, 0, 4157.436, 4136.41, 4083.59, 4107.179, 4136.41, 450, 0, []
1629356914.0507, 98, 0, 4170.769, 4216.923, 4102.051, 4119.487, 4153.846, 450, 0, []
1629356914.0587, 99, 0, 4168.205, 4274.359, 4090.256, 4115.385, 4147.692, 16194, 0, []
1629356914.0666, 100, 0, 4149.231, 4197.949, 4081.538, 4101.538, 4127.179, 450, 0, []
1629356914.0745, 101, 0, 4162.051, 4086.154, 4098.974, 4121.026, 4147.179, 450, 0, []
1629356914.0825, 102, 0, 4186.154, 4087.179, 4110.769, 4138.974, 4167.692, 450, 0, []
1629356914.0904, 103, 0, 4188.718, 4163.077, 4127.692, 4132.308, 4164.103, 16194, 0, []
1629356914.0983, 104, 0, 4177.949, 4176.41, 4097.949, 4118.974, 4153.333, 450, 0, []
1629356914.1063, 105, 0, 4165.641, 4156.41, 4083.077, 4111.282, 4147.692, 450, 0, []
1629356914.1142, 106, 0, 4167.179, 4201.026, 4106.154, 4115.897, 4152.821, 450, 0, []
1629356914.1222, 107, 0, 4184.103, 4234.872, 4110.256, 4124.103, 4166.667, 16194, 0, []
1629356914.13, 108, 0, 4191.282, 4156.923, 4120.513, 4132.821, 4173.333, 450, 0, []
1629356914.138, 109, 0, 4173.846, 4015.897, 4105.641, 4135.385, 4156.923, 450, 0, []
1629356914.146, 110, 0, 4168.205, 3978.462, 4106.667, 4127.179, 4148.205, 450, 0, []
1629356914.1539, 111, 0, 4186.154, 4023.59, 4121.026, 4117.436, 4156.923, 16194, 0, []
1629356914.1618, 112, 0, 4199.487, 4048.718, 4098.462, 4120.513, 4160.513, 450, 0, []
1629356914.1697, 113, 0, 4202.051, 4079.487, 4111.795, 4131.282, 4162.564, 450, 0, []
1629356914.1776, 114, 0, 4196.41, 4119.487, 4119.487, 4124.103, 4162.564, 450, 0, []
1629356914.1856, 115, 0, 4190.256, 4152.821, 4107.692, 4115.385, 4154.872, 16194, 0, []
1629356914.1936, 116, 0, 4187.179, 4178.462, 4110.256, 4121.538, 4149.231, 450, 0, []
1629356914.2015, 117, 0, 4190.256, 4135.897, 4101.538, 4124.103, 4149.744, 450, 0, []
1629356914.2093, 118, 0, 4200.513, 4034.359, 4124.615, 4130.256, 4164.615, 450, 0, []
1629356914.2173, 119, 0, 4198.462, 4038.462, 4129.744, 4135.897, 4173.333, 16194, 0, []
1629356914.2252, 120, 0, 4191.282, 4103.077, 4118.974, 4135.897, 4162.051, 450, 0, []
1629356914.2332, 121, 0, 4192.308, 4071.282, 4126.667, 4133.846, 4151.795, 450, 0, []
1629356914.2412, 122, 0, 4179.487, 4084.103, 4102.051, 4121.026, 4143.59, 450, 0, []
1629356914.249, 123, 0, 4167.179, 4173.846, 4107.179, 4119.487, 4143.59, 16194, 0, []
1629356914.257, 124, 0, 4181.538, 4149.231, 4124.103, 4130.769, 4157.436, 450, 0, []
1629356914.2649, 125, 0, 4190.769, 4035.385, 4111.282, 4127.179, 4160.513, 450, 0, []
1629356914.2729, 126, 0, 4180.513, 4029.744, 4105.128, 4116.41, 4148.718, 450, 0, []
1629356914.2808, 127, 0, 4174.872, 4059.487, 4095.385, 4117.436, 4142.051, 16194, 0, []
1629356914.2887, 128, 0, 4182.051, 3997.436, 4114.359, 4129.744, 4155.897, 450, 0, []
1629356914.2967, 0, 0, 4183.59, 3981.538, 4113.846, 4126.667, 4157.949, 450, 0, []
1629356914.3046, 1, 0, 4180.513, 4011.795, 4098.462, 4117.949, 4146.154, 450, 0, []
1629356914.3125, 2, 0, 4185.128, 4016.923, 4121.538, 4127.692, 4157.949, 16188, 0, []
1629356914.3205, 3, 0, 4186.667, 4083.077, 4113.846, 4131.282, 4167.179, 450, 0, []
1629356914.3283, 4, 0, 4176.41, 4186.154, 4103.59, 4119.487, 4150.769, 16181, 0, []
1629356914.3363, 5, 0, 4173.333, 4189.744, 4100, 4110.256, 4140.513, 450, 0, []
1629356914.3443, 6, 0, 4171.282, 4139.487, 4084.103, 4107.692, 4138.462, 16129, 0, []
1629356914.3522, 7, 0, 4172.821, 4130.769, 4101.026, 4115.385, 4143.077, 450, 0, []
1629356914.3601, 8, 0, 4183.59, 4081.538, 4105.128, 4124.103, 4155.385, 450, 0, []
1629356914.368, 9, 0, 4189.744, 4071.282, 4115.385, 4128.205, 4159.487, 16166, 0, []
1629356914.3759, 10, 0, 4192.821, 4209.231, 4125.641, 4130.256, 4157.949, 450, 0, []
1629356914.3839, 11, 0, 4190.256, 4290.769, 4113.846, 4124.615, 4158.462, 16154, 0, []
1629356914.3919, 12, 0, 4174.872, 4242.051, 4123.59, 4110.769, 4149.744, 450, 0, []
1629356914.3998, 13, 0, 4164.615, 4254.872, 4113.846, 4098.974, 4134.359, 450, 0, []
1629356914.4077, 14, 0, 4164.615, 4254.359, 4107.179, 4098.974, 4128.718, 450, 0, []
1629356914.4156, 15, 0, 4163.077, 4127.692, 4114.359, 4099.487, 4134.872, 16154, 0, []
1629356914.4236, 16, 0, 4181.026, 4091.282, 4114.872, 4110.769, 4158.462, 0, 0, []
1629356914.4315, 17, 0, 4209.744, 4145.128, 4143.59, 4137.436, 4187.179, 0, 0, []
1629356914.4395, 18, 0, 4197.436, 4162.564, 4127.179, 4130.256, 4172.308, 0, 0, []
1629356914.4473, 19, 0, 4175.897, 4216.41, 4112.821, 4106.667, 4151.795, 0, 0, []
1629356914.4553, 20, 0, 4192.308, 4240, 4143.077, 4124.103, 4174.359, 0, 0, []
1629356914.4632, 21, 0, 4200, 4175.385, 4132.821, 4139.487, 4182.564, 0, 0, []
1629356914.4712, 22, 0, 4184.615, 4116.41, 4122.051, 4121.538, 4157.949, 0, 0, []
1629356914.4791, 23, 0, 4178.462, 4084.103, 4117.949, 4110.769, 4149.231, 0, 0, []
1629356914.487, 24, 0, 4178.462, 4108.205, 4118.462, 4112.308, 4156.923, 0, 0, []
1629356914.4949, 25, 0, 4172.308, 4190.256, 4122.564, 4105.641, 4153.333, 0, 0, []
1629356914.5029, 26, 0, 4168.205, 4207.179, 4097.949, 4093.333, 4139.487, 0, 0, []
1629356914.5108, 27, 0, 4167.179, 4189.231, 4111.282, 4099.487, 4140, 0, 0, []
1629356914.5188, 28, 0, 4173.846, 4261.538, 4131.282, 4118.462, 4158.462, 0, 0, []
1629356914.5266, 29, 0, 4190.769, 4345.128, 4133.846, 4128.205, 4170.256, 0, 0, []
1629356914.5346, 30, 0, 4195.385, 4334.359, 4140, 4121.538, 4161.538, 0, 0, []
1629356914.5426, 31, 0, 4171.795, 4256.923, 4109.231, 4099.487, 4139.487, 0, 0, []
1629356914.5505, 32, 0, 4147.692, 4216.41, 4108.718, 4088.205, 4131.795, 0, 0, []
1629356914.5585, 33, 0, 4151.282, 4246.667, 4124.615, 4093.846, 4141.538, 0, 0, []
1629356914.5663, 34, 0, 4163.59, 4234.359, 4113.333, 4098.462, 4141.026, 0, 0, []
1629356914.5743, 35, 0, 4164.615, 4169.231, 4110.256, 4102.051, 4136.41, 0, 0, []
1629356914.5822, 36, 0, 4158.974, 4102.051, 4093.333, 4104.615, 4138.974, 0, 0, []
1629356914.5902, 37, 0, 4150.256, 4009.231, 4096.41, 4100.513, 4140, 0, 0, []
1629356914.5981, 38, 0, 4143.59, 3960, 4088.205, 4087.692, 4130.256, 0, 0, []
1629356914.606, 39, 0, 4133.846, 3997.949, 4060.513, 4072.821, 4108.718, 0, 0, []
1629356914.6139, 40, 0, 4133.846, 4053.846, 4081.538, 4081.026, 4108.718, 0, 0, []
1629356914.6219, 41, 0, 4144.103, 4085.641, 4084.103, 4100.513, 4129.744, 0, 0, []
1629356914.6298, 42, 0, 4148.718, 4038.974, 4084.103, 4103.077, 4137.436, 0, 0, []
1629356914.6378, 43, 0, 4144.103, 3946.154, 4093.846, 4093.333, 4127.692, 0, 0, []
1629356914.6456, 44, 0, 4128.205, 3969.231, 4075.385, 4080.513, 4111.795, 0, 0, []
1629356914.6536, 45, 0, 4111.282, 4053.846, 4071.282, 4071.282, 4096.41, 0, 0, []
1629356914.6616, 46, 0, 4116.923, 4069.744, 4070.256, 4076.41, 4103.077, 0, 0, []
1629356914.6695, 47, 0, 4141.026, 4122.051, 4090.256, 4094.872, 4132.821, 0, 0, []
1629356914.6774, 48, 0, 4146.667, 4228.718, 4102.564, 4095.897, 4136.923, 0, 0, []
1629356914.6853, 49, 0, 4128.718, 4216.923, 4078.462, 4080, 4113.333, 0, 0, []
1629356914.6932, 50, 0, 4122.564, 4134.359, 4091.795, 4076.923, 4107.179, 0, 0, []
1629356914.7012, 51, 0, 4133.333, 4135.897, 4097.436, 4083.077, 4110.769, 0, 0, []
1629356914.7092, 52, 0, 4129.744, 4166.667, 4080.513, 4083.077, 4098.462, 0, 0, []
1629356914.7171, 53, 0, 4117.949, 4134.359, 4076.41, 4080.513, 4093.333, 0, 0, []
1629356914.725, 54, 0, 4124.615, 4085.128, 4076.41, 4077.436, 4106.667, 0, 0, []
1629356914.7329, 55, 0, 4135.897, 4097.949, 4107.692, 4083.077, 4116.41, 0, 0, []
1629356914.7409, 56, 0, 4135.385, 4121.026, 4107.179, 4098.462, 4116.923, 0, 0, []
1629356914.7488, 57, 0, 4134.872, 4121.026, 4085.641, 4105.128, 4115.897, 0, 0, []
1629356914.7567, 58, 0, 4135.897, 4109.231, 4090.256, 4095.385, 4115.897, 0, 0, []
1629356914.7647, 59, 1, 4137.778, 4106.268, 4092.422, 4097.493, 4118.006, 50, 0, []
1629356914.7725, 60, 1, 4139.658, 4103.305, 4094.587, 4099.601, 4120.114, 100, 0, []
1629356914.7804, 61, 1, 4141.538, 4100.342, 4096.752, 4101.709, 4122.222, 150, 0, []
1629356914.7883, 62, 1, 4143.419, 4097.379, 4098.917, 4103.818, 4124.33, 200, 0, []
1629356914.7962, 63, 1, 4145.299, 4094.416, 4101.083, 4105.926, 4126.439, 250, 0, []
1629356914.8041, 64, 1, 4147.179, 4091.453, 4103.248, 4108.034, 4128.547, 450, 0, []
1629356914.8119, 65, 1, 4149.06, 4088.49, 4105.413, 4110.142, 4130.655, 450, 0, []
1629356914.8198, 66, 1, 4150.94, 4085.527, 4107.578, 4112.251, 4132.764, 16188, 0, []
1629356914.8277, 67, 0, 4152.821, 4082.564, 4109.744, 4114.359, 4134.872, 450, 0, []
1629356914.8357, 68, 0, 4140.513, 4166.667, 4100.513, 4098.974, 4126.667, 16159, 0, []
1629356914.8436, 69, 0, 4141.026, 4191.282, 4101.026, 4094.359, 4117.436, 450, 0, []
1629356914.8514, 70, 0, 4162.051, 4171.795, 4132.308, 4115.897, 4131.795, 16128, 0, []
1629356914.8593, 71, 0, 4173.333, 4184.615, 4135.897, 4126.667, 4145.641, 450, 0, []
1629356914.8671, 72, 0, 4172.308, 4268.205, 4108.718, 4125.641, 4147.179, 450, 0, []
1629356914.875, 73, 0, 4166.154, 4297.949, 4122.564, 4130.769, 4148.205, 16164, 0, []
1629356914.8828, 74, 0, 4157.436, 4258.462, 4120, 4122.051, 4138.974, 450, 0, []
1629356914.8905, 75, 0, 4156.41, 4306.667, 4121.538, 4111.282, 4127.179, 16167, 0, []
1629356914.8984, 76, 0, 4165.128, 4437.436, 4126.667, 4124.615, 4135.897, 450, 0, []
1629356914.9062, 77, 0, 4161.026, 4487.179, 4102.564, 4125.128, 4146.154, 450, 0, []
1629356914.9142, 78, 0, 4156.923, 4433.846, 4113.846, 4118.974, 4151.795, 450, 0, []
1629356914.9221, 79, 0, 4164.103, 4391.795, 4123.077, 4129.744, 4155.897, 16167, 0, []
1629356914.9299, 80, 0, 4166.154, 4395.897, 4125.128, 4138.462, 4151.795, 450, 0, []
1629356914.9377, 81, 0, 4158.462, 4322.564, 4121.026, 4130.256, 4141.538, 450, 0, []
1629356914.9456, 82, 0, 4145.128, 4143.077, 4093.333, 4108.205, 4126.154, 450, 0, []
1629356914.9534, 83, 0, 4139.487, 4089.744, 4099.487, 4100.513, 4123.59, 16167, 0, []
1629356914.9613, 84, 0, 4153.333, 4177.436, 4106.154, 4119.487, 4138.462, 450, 0, []
1629356914.969, 85, 0, 4173.333, 4175.385, 4126.154, 4146.667, 4155.385, 450, 0, []
1629356914.9769, 86, 0, 4178.974, 4121.026, 4152.308, 4156.41, 4164.615, 450, 0, []
1629356914.9847, 87, 0, 4172.821, 4161.538, 4137.436, 4150.256, 4166.154, 16167, 0, []
1629356914.9926, 88, 0, 4173.846, 4232.308, 4138.462, 4150.769, 4166.667, 450, 0, []
1629356915.0004, 89, 0, 4163.59, 4225.128, 4117.949, 4138.974, 4151.795, 450, 0, []
1629356915.0082, 90, 0, 4147.179, 4189.744, 4097.949, 4120.513, 4138.462, 450, 0, []
1629356915.016, 91, 0, 4155.385, 4191.795, 4114.359, 4126.154, 4149.231, 16167, 0, []
1629356915.0239, 92, 0, 4166.154, 4172.308, 4109.744, 4135.897, 4150.256, 450, 0, []
1629356915.0317, 93, 0, 4162.564, 4105.641, 4113.333, 4138.462, 4142.051, 450, 0, []
1629356915.0396, 94, 0, 4155.897, 4087.692, 4103.077, 4133.846, 4140, 450, 0, []
1629356915.0473, 95, 0, 4150.256, 4153.333, 4095.897, 4127.179, 4137.436, 16167, 0, []
1629356915.0551, 96, 0, 4155.897, 4145.128, 4122.051, 4134.872, 4144.615, 450, 0, []
1629356915.063, 97, 0, 4161.026, 4024.615, 4112.308, 4134.359, 4146.667, 450, 0, []
1629356915.0708, 98, 0, 4147.692, 3996.923, 4097.949, 4110.256, 4125.128, 450, 0, []
1629356915.0787, 99, 0, 4154.872, 4106.667, 4104.615, 4107.692, 4127.179, 16167, 0, []
1629356915.0864, 100, 0, 4184.615, 4193.846, 4136.923, 4140, 4165.128, 450, 0, []
1629356915.0943, 101, 0, 4183.59, 4156.923, 4157.436, 4152.821, 4177.949, 450, 0, []
1629356915.1021, 102, 0, 4161.538, 4064.103, 4114.359, 4129.744, 4150.769, 450, 0, []
1629356915.11, 103, 0, 4162.564, 4043.59, 4113.846, 4118.974, 4141.538, 16167, 0, []
1629356915.1178, 104, 0, 4160.513, 4070.769, 4125.641, 4119.487, 4140.513, 450, 0, []
1629356915.1256, 105, 0, 4142.564, 4090.769, 4097.949, 4108.718, 4125.641, 450, 0, []
1629356915.1334, 106, 0, 4154.359, 4130.256, 4108.718, 4112.821, 4134.872, 450, 0, []
1629356915.1413, 107, 0, 4172.308, 4153.333, 4107.692, 4120, 4146.154, 16167, 0, []
1629356915.1491, 108, 0, 4165.641, 4115.897, 4104.615, 4118.974, 4139.487, 450, 0, []
1629356915.157, 109, 0, 4162.564, 4056.41, 4112.308, 4123.077, 4146.667, 450, 0, []
1629356915.1647, 110, 0, 4169.231, 4023.077, 4103.59, 4129.231, 4161.026, 450, 0, []
1629356915.1726, 111, 0, 4169.744, 4074.359, 4109.231, 4133.846, 4158.462, 16167, 0, []
1629356915.1804, 112, 0, 4160, 4164.615, 4091.795, 4120, 4139.487, 450, 0, []
1629356915.1883, 113, 0, 4158.974, 4103.077, 4089.231, 4110.256, 4140.513, 450, 0, []
1629356915.1961, 114, 0, 4168.205, 4030.769, 4101.026, 4122.051, 4162.051, 450, 0, []
1629356915.2038, 115, 0, 4164.103, 4139.487, 4085.128, 4121.538, 4158.462, 16167, 0, []
1629356915.2118, 116, 0, 4156.923, 4186.154, 4092.308, 4115.385, 4143.077, 450, 0, []
1629356915.2197, 117, 0, 4163.59, 4098.462, 4093.846, 4118.462, 4144.615, 450, 0, []
1629356915.2276, 118, 0, 4167.692, 4064.103, 4098.462, 4119.487, 4151.282, 450, 0, []
1629356915.2354, 119, 0, 4170.769, 4104.615, 4113.333, 4121.026, 4158.974, 16167, 0, []
1629356915.2432, 120, 0, 4178.462, 4162.564, 4105.641, 4127.179, 4164.615, 450, 0, []
1629356915.251, 121, 0, 4172.821, 4246.667, 4105.128, 4121.026, 4155.385, 450, 0, []
1629356915.2589, 122, 0, 4160.513, 4270.256, 4086.154, 4110.256, 4147.692, 450, 0, []
1629356915.2667, 123, 0, 4168.205, 4216.923, 4086.154, 4118.462, 4162.051, 16167, 0, []
1629356915.2746, 124, 0, 4176.923, 4234.359, 4111.795, 4118.462, 4167.179, 450, 0, []
1629356915.2823, 125, 0, 4166.667, 4294.872, 4107.179, 4104.615, 4149.744, 450, 0, []
1629356915.2902, 126, 0, 4165.128, 4267.179, 4115.897, 4105.128, 4152.308, 450, 0, []
1629356915.298, 127, 0, 4167.692, 4126.154, 4101.026, 4097.436, 4158.974, 16167, 0, []
1629356915.3059, 128, 0, 4158.462, 4013.846, 4084.103, 4089.744, 4153.333, 450, 0, []
1629356915.3137, 0, 0, 4160.513, 4044.615, 4108.205, 4114.359, 4162.051, 450, 0, []
1629356915.3214, 1, 0, 4164.103, 4130.769, 4097.436, 4131.795, 4164.103, 450, 0, []
1629356915.3293, 2, 0, 4157.436, 4161.026, 4092.308, 4127.179, 4155.897, 16186, 0, []
1629356915.3371, 3, 0, 4165.128, 4157.436, 4102.564, 4132.308, 4161.026, 450, 0, []
1629356915.345, 4, 0, 4167.692, 4188.718, 4101.538, 4127.692, 4157.949, 16179, 0, []
1629356915.3528, 5, 0, 4153.846, 4189.744, 4111.282, 4107.179, 4141.026, 450, 0, []
1629356915.3606, 6, 0, 4158.974, 4162.051, 4103.077, 4100.513, 4136.41, 16132, 0, []
1629356915.3684, 7, 0, 4172.308, 4200.513, 4105.641, 4104.103, 4145.128, 450, 0, []
1629356915.3763, 8, 0, 4169.744, 4268.205, 4111.795, 4109.231, 4151.795, 450, 0, []
1629356915.3841, 9, 0, 4172.308, 4307.179, 4112.308, 4121.026, 4157.436, 16164, 0, []
1629356915.392, 10, 0, 4179.487, 4370.256, 4126.667, 4129.231, 4161.026, 450, 0, []
1629356915.3998, 11, 0, 4180, 4424.615, 4113.846, 4135.897, 4166.154, 16192, 0, []
1629356915.4076, 12, 0, 4184.103, 4354.872, 4116.41, 4150.256, 4175.385, 450, 0, []
1629356915.4154, 13, 0, 4178.462, 4296.41, 4120.513, 4141.538, 4170.256, 450, 0, []
1629356915.4233, 14, 0, 4156.41, 4326.667, 4100, 4105.128, 4150.769, 450, 0, []
1629356915.4311, 15, 0, 4156.41, 4262.564, 4116.41, 4094.359, 4148.718, 16192, 0, []
1629356915.439, 16, 0, 4175.385, 4136.923, 4121.026, 4106.667, 4158.974, 0, 0, []
1629356915.4467, 17, 0, 4175.897, 4118.974, 4124.103, 4113.846, 4159.487, 0, 0, []
1629356915.4546, 18, 0, 4166.667, 4154.872, 4133.333, 4112.821, 4156.41, 0, 0, []
1629356915.4624, 19, 0, 4168.718, 4155.897, 4120.513, 4115.385, 4154.872, 0, 0, []
1629356915.4703, 20, 0, 4178.974, 4183.59, 4127.692, 4134.872, 4161.026, 0, 0, []
1629356915.4781, 21, 0, 4176.41, 4201.538, 4113.846, 4144.615, 4160, 0, 0, []
1629356915.4859, 22, 0, 4169.231, 4151.282, 4109.744, 4143.077, 4154.359, 0, 0, []
1629356915.4937, 23, 0, 4171.795, 4161.538, 4127.692, 4153.333, 4157.949, 0, 0, []
1629356915.5015, 24, 0, 4172.821, 4211.282, 4111.795, 4153.846, 4157.436, 0, 0, []
1629356915.5094, 25, 0, 4172.308, 4180.513, 4112.821, 4141.538, 4158.974, 0, 0, []
1629356915.5172, 26, 0, 4173.846, 4147.179, 4107.692, 4129.744, 4161.538, 0, 0, []
1629356915.525, 27, 0, 4173.846, 4176.41, 4099.487, 4122.564, 4158.462, 0, 0, []
1629356915.5328, 28, 0, 4178.462, 4216.923, 4106.667, 4122.051, 4162.564, 0, 0, []
1629356915.5407, 29, 0, 4183.077, 4274.872, 4093.333, 4119.487, 4165.641, 0, 0, []
1629356915.5485, 30, 0, 4182.564, 4350.769, 4108.205, 4118.462, 4165.641, 0, 0, []
1629356915.5564, 31, 0, 4180, 4354.359, 4112.308, 4123.077, 4170.256, 0, 0, []
1629356915.5641, 32, 0, 4181.538, 4284.615, 4104.103, 4124.103, 4167.179, 0, 0, []
1629356915.572, 33, 0, 4189.231, 4245.641, 4114.872, 4126.667, 4165.128, 0, 0, []
1629356915.5798, 34, 0, 4198.974, 4323.077, 4108.205, 4131.795, 4181.026, 0, 0, []
1629356915.5877, 35, 0, 4205.641, 4418.974, 4119.487, 4132.821, 4200, 0, 0, []
1629356915.5955, 36, 0, 4202.051, 4372.821, 4115.385, 4122.564, 4191.795, 0, 0, []
1629356915.6033, 37, 0, 4189.744, 4264.615, 4104.103, 4113.846, 4176.41, 0, 0, []
1629356915.6111, 38, 0, 4183.59, 4230.769, 4120.513, 4120.513, 4181.538, 0, 0, []
1629356915.6191, 39, 0, 4180, 4223.077, 4104.615, 4121.538, 4182.564, 0, 0, []
1629356915.627, 40, 0, 4170.256, 4213.333, 4092.821, 4111.795, 4164.103, 0, 0, []
1629356915.6349, 41, 0, 4172.308, 4192.821, 4088.718, 4105.128, 4151.795, 0, 0, []
1629356915.6426, 42, 0, 4183.077, 4060, 4091.795, 4110.256, 4161.538, 0, 0, []
1629356915.6505, 43, 0, 4169.744, 3958.974, 4097.436, 4104.103, 4158.974, 0, 0, []
1629356915.6584, 44, 0, 4154.872, 4044.103, 4075.897, 4094.872, 4145.641, 0, 0, []
1629356915.6663, 45, 0, 4181.026, 4095.897, 4101.538, 4126.154, 4167.692, 0, 0, []
1629356915.6742, 46, 0, 4198.462, 4007.692, 4115.897, 4147.179, 4186.667, 0, 0, []
1629356915.682, 47, 0, 4178.974, 3966.154, 4091.282, 4121.026, 4166.667, 0, 0, []
1629356915.6898, 48, 0, 4175.385, 4027.179, 4114.359, 4110.769, 4165.128, 0, 0, []
1629356915.6976, 49, 0, 4184.615, 4072.821, 4115.385, 4117.436, 4178.462, 0, 0, []
1629356915.7055, 50, 0, 4181.538, 4114.872, 4101.538, 4107.179, 4167.179, 0, 0, []
1629356915.7133, 51, 0, 4186.667, 4199.487, 4116.41, 4112.308, 4166.667, 0, 0, []
1629356915.7212, 52, 0, 4192.821, 4238.974, 4121.538, 4129.231, 4182.051, 0, 0, []
1629356915.7292, 53, 0, 4188.205, 4226.154, 4121.538, 4125.641, 4182.051, 0, 0, []
1629356915.7371, 54, 0, 4194.872, 4280, 4112.308, 4124.615, 4180.513, 0, 0, []
1629356915.745, 55, 0, 4199.487, 4359.487, 4113.846, 4131.795, 4186.667, 0, 0, []
1629356915.7529, 56, 0, 4187.179, 4336.923, 4108.718, 4129.231, 4185.128, 0, 0, []
1629356915.7608, 57, 0, 4184.615, 4281.026, 4092.308, 4121.538, 4176.41, 0, 0, []
1629356915.7687, 58, 0, 4192.308, 4277.949, 4109.231, 4119.487, 4174.359, 0, 0, []
1629356915.7767, 59, 0, 4188.205, 4271.282, 4103.59, 4118.974, 4174.872, 0, 0, []
1629356915.7847, 60, 0, 4176.41, 4230.769, 4094.359, 4116.923, 4169.231, 0, 0, []
1629356915.7926, 61, 0, 4182.564, 4195.897, 4100, 4122.051, 4168.718, 0, 0, []
1629356915.8005, 62, 0, 4193.333, 4194.872, 4083.59, 4125.641, 4172.821, 0, 0, []
1629356915.8085, 63, 0, 4187.179, 4243.077, 4092.308, 4125.128, 4174.359, 0, 0, []
1629356915.8164, 64, 0, 4173.846, 4305.128, 4086.667, 4117.436, 4162.564, 450, 0, []
1629356915.8243, 65, 0, 4168.205, 4304.103, 4074.359, 4109.744, 4148.205, 450, 0, []
1629356915.8323, 66, 0, 4187.179, 4302.564, 4101.026, 4129.744, 4164.615, 16186, 0, []
1629356915.8402, 67, 0, 4200, 4390.769, 4099.487, 4147.179, 4180.513, 450, 0, []
1629356915.8481, 68, 0, 4183.59, 4405.641, 4089.744, 4136.41, 4166.154, 16171, 0, []
1629356915.8561, 69, 1, 4185.299, 4375.385, 4092.308, 4136.296, 4167.806, 450, 0, []
1629356915.864, 70, 1, 4187.009, 4345.128, 4094.872, 4136.182, 4169.459, 16132, 0, []
1629356915.8719, 71, 1, 4188.718, 4314.872, 4097.436, 4136.068, 4171.111, 450, 0, []
1629356915.8797, 72, 1, 4190.427, 4284.615, 4100, 4135.954, 4172.764, 450, 0, []
1629356915.8876, 73, 1, 4192.137, 4254.359, 4102.564, 4135.84, 4174.416, 16164, 0, []
1629356915.8955, 74, 1, 4193.846, 4224.103, 4105.128, 4135.726, 4176.068, 450, 0, []
1629356915.9034, 75, 1, 4195.556, 4193.846, 4107.692, 4135.613, 4177.721, 16192, 0, []
1629356915.9113, 76, 1, 4197.265, 4163.59, 4110.256, 4135.499, 4179.373, 450, 0, []
1629356915.9191, 77, 0, 4198.974, 4133.333, 4112.821, 4135.385, 4181.026, 450, 0, []
1629356915.9271, 78, 0, 4197.436, 4071.795, 4104.103, 4131.282, 4169.744, 450, 0, []
1629356915.935, 79, 0, 4193.846, 4038.462, 4112.308, 4147.179, 4170.256, 16195, 0, []
1629356915.9429, 80, 0, 4198.974, 4068.205, 4113.846, 4160, 4184.103, 450, 0, []
1629356915.9507, 81, 0, 4209.231, 4125.641, 4131.795, 4158.462, 4193.333, 450, 0, []
1629356915.9586, 82, 0, 4206.154, 4138.462, 4109.744, 4147.692, 4179.487, 450, 0, []
1629356919.3771, 124, 0, 4223.077, 4131.282, 4158.974, 4173.333, 4213.846, 450, 0, []
1629356919.385, 125, 0, 4214.359, 4175.897, 4128.718, 4166.667, 4202.051, 450, 0, []
1629356919.3929, 126, 0, 4209.231, 4252.821, 4130.769, 4167.692, 4196.41, 450, 0, []
1629356919.4008, 127, 0, 4201.538, 4244.103, 4124.103, 4153.333, 4192.308, 16186, 0, []
1629356919.4088, 128, 0, 4201.538, 4199.487, 4122.051, 4144.615, 4185.641, 450, 0, []
1629356919.4167, 0, 0, 4209.744, 4252.821, 4120.513, 4160, 4188.205, 450, 0, []
1629356919.4247, 1, 0, 4207.179, 4302.564, 4129.744, 4170.256, 4194.872, 450, 0, []
1629356919.4326, 2, 0, 4192.308, 4234.359, 4113.333, 4156.923, 4183.59, 16185, 0, []
1629356919.4405, 3, 0, 4186.667, 4196.41, 4115.385, 4149.744, 4171.282, 450, 0, []
1629356919.4484, 4, 0, 4194.872, 4198.462, 4108.718, 4155.385, 4178.974, 16179, 0, []
1629356919.4564, 5, 0, 4206.154, 4168.718, 4119.487, 4170.256, 4193.846, 450, 0, []
1629356919.4643, 6, 0, 4213.846, 4158.974, 4140, 4180.513, 4202.051, 16125, 0, []
1629356919.4722, 7, 0, 4212.308, 4158.462, 4125.128, 4168.205, 4196.923, 450, 0, []
1629356919.4802, 8, 0, 4205.128, 4163.59, 4126.154, 4156.41, 4186.667, 450, 0, []
1629356919.4882, 9, 0, 4203.077, 4203.59, 4119.487, 4157.949, 4177.436, 16164, 0, []
1629356919.4961, 10, 0, 4200, 4220, 4118.974, 4156.41, 4173.846, 450, 0, []
1629356919.504, 11, 0, 4190.769, 4220, 4129.744, 4151.282, 4173.846, 16192, 0, []
1629356919.5119, 12, 0, 4187.692, 4247.692, 4124.103, 4157.436, 4175.385, 450, 0, []
1629356919.5198, 13, 0, 4193.846, 4227.179, 4133.846, 4168.205, 4180, 450, 0, []
1629356919.5278, 14, 0, 4189.231, 4151.795, 4125.128, 4163.59, 4176.923, 450, 0, []
1629356919.5357, 15, 0, 4182.051, 4116.41, 4120.513, 4154.872, 4173.333, 16192, 0, []
1629356919.5437, 16, 0, 4188.205, 4142.564, 4136.41, 4156.41, 4177.436, 0, 0, []
1629356919.5516, 17, 0, 4183.59, 4226.154, 4120, 4148.205, 4168.205, 0, 0, []
1629356919.5595, 18, 0, 4168.718, 4252.308, 4115.385, 4135.385, 4154.359, 0, 0, []
1629356919.5674, 19, 0, 4175.897, 4182.051, 4117.436, 4142.051, 4162.564, 0, 0, []
1629356919.5754, 20, 0, 4193.333, 4197.436, 4118.462, 4154.359, 4180, 0, 0, []
1629356919.5834, 21, 0, 4192.308, 4268.205, 4124.103, 4151.282, 4180.513, 0, 0, []
1629356919.5914, 22, 0, 4187.179, 4260, 4104.615, 4138.974, 4170.769, 0, 0, []
1629356919.5992, 23, 0, 4200, 4274.872, 4123.077, 4146.667, 4175.385, 0, 0, []
1629356919.6071, 24, 1, 4194.815, 4266.268, 4119.772, 4147.521, 4171.225, 0, 0, []
1629356919.615, 25, 1, 4189.63, 4257.664, 4116.467, 4148.376, 4167.066, 0, 0, []
1629356919.6229, 26, 1, 4184.444, 4249.06, 4113.162, 4149.231, 4162.906, 0, 0, []
1629356919.6308, 27, 1, 4179.259, 4240.456, 4109.858, 4150.085, 4158.746, 0, 0, []
1629356919.6386, 28, 1, 4174.074, 4231.852, 4106.553, 4150.94, 4154.587, 0, 0, []
1629356919.6465, 29, 1, 4168.889, 4223.248, 4103.248, 4151.795, 4150.427, 0, 0, []
1629356919.6544, 30, 1, 4163.704, 4214.644, 4099.943, 4152.65, 4146.268, 0, 0, []
1629356919.6623, 31, 1, 4158.519, 4206.04, 4096.638, 4153.504, 4142.108, 0, 0, []
1629356919.6702, 32, 0, 4153.333, 4197.436, 4093.333, 4154.359, 4137.949, 0, 0, []
1629356919.678, 33, 0, 4154.872, 4175.897, 4108.205, 4163.077, 4143.077, 0, 0, []
1629356919.686, 34, 0, 4159.487, 4097.949, 4131.282, 4166.154, 4155.897, 0, 0, []
1629356919.694, 35, 0, 4151.795, 4073.846, 4115.897, 4152.308, 4149.231, 0, 0, []
1629356919.7019, 36, 0, 4138.974, 4111.282, 4106.154, 4135.897, 4135.385, 0, 0, []
1629356919.7099, 37, 0, 4144.615, 4160, 4094.359, 4127.179, 4134.359, 0, 0, []
1629356919.7177, 38, 0, 4150.256, 4187.179, 4097.949, 4120, 4133.333, 0, 0, []
1629356919.7257, 39, 0, 4144.103, 4174.359, 4114.872, 4117.436, 4131.282, 0, 0, []
1629356919.7336, 40, 0, 4143.59, 4181.538, 4117.949, 4128.718, 4137.949, 0, 0, []
1629356919.7416, 41, 0, 4143.077, 4208.205, 4125.128, 4136.923, 4136.923, 0, 0, []
1629356919.7496, 42, 0, 4139.487, 4191.795, 4112.308, 4131.282, 4121.538, 0, 0, []
1629356919.7574, 43, 0, 4148.205, 4155.897, 4125.128, 4143.077, 4127.692, 0, 0, []
1629356919.7653, 44, 0, 4147.179, 4173.333, 4138.974, 4150.769, 4137.436, 0, 0, []
1629356919.7733, 45, 0, 4131.282, 4286.667, 4108.718, 4129.231, 4124.615, 0, 0, []
1629356919.7812, 46, 0, 4148.205, 4389.744, 4126.154, 4138.462, 4137.436, 0, 0, []
1629356919.7892, 47, 0, 4181.026, 4356.923, 4142.564, 4171.795, 4164.615, 0, 0, []
1629356919.7971, 48, 0, 4175.897, 4291.282, 4126.667, 4167.179, 4158.974, 0, 0, []
1629356919.8051, 49, 0, 4152.821, 4316.41, 4117.436, 4138.974, 4140, 0, 0, []
1629356919.813, 50, 0, 4147.179, 4324.103, 4102.564, 4122.564, 4129.744, 0, 0, []
1629356919.8209, 51, 0, 4154.359, 4302.051, 4111.795, 4124.615, 4129.231, 0, 0, []
1629356919.8289, 52, 0, 4158.462, 4373.846, 4113.846, 4134.872, 4134.872, 0, 0, []
1629356919.8368, 53, 0, 4147.692, 4438.462, 4109.744, 4136.41, 4131.282, 0, 0, []
1629356919.8448, 54, 0, 4139.487, 4383.077, 4113.846, 4126.154, 4125.128, 0, 0, []
1629356919.8528, 55, 0, 4147.179, 4334.359, 4105.641, 4127.179, 4130.769, 0, 0, []
1629356919.8608, 56, 0, 4159.487, 4365.128, 4124.615, 4142.051, 4139.487, 0, 0, []
1629356919.8687, 57, 0, 4165.128, 4404.103, 4122.051, 4147.692, 4138.974, 0, 0, []
1629356919.8766, 58, 0, 4168.205, 4418.462, 4104.615, 4145.128, 4147.692, 0, 0, []
1629356919.8845, 59, 0, 4173.846, 4413.846, 4120.513, 4144.615, 4164.615, 0, 0, []
1629356919.8925, 60, 1, 4173.675, 4427.749, 4117.436, 4144.16, 4162.906, 1794.556, 0, []
1629356919.9004, 61, 1, 4173.504, 4441.652, 4114.359, 4143.704, 4161.197, 3589.111, 0, []
1629356919.9083, 62, 1, 4173.333, 4455.556, 4111.282, 4143.248, 4159.487, 5383.667, 0, []
1629356919.9161, 63, 1, 4173.162, 4469.459, 4108.205, 4142.792, 4157.778, 7178.222, 0, []
1629356919.924, 64, 1, 4172.991, 4483.362, 4105.128, 4142.336, 4156.068, 450, 0, []
1629356919.9319, 65, 1, 4172.821, 4497.265, 4102.051, 4141.88, 4154.359, 450, 0, []
1629356919.9398, 66, 1, 4172.65, 4511.168, 4098.974, 4141.425, 4152.65, 16185, 0, []
1629356919.9477, 67, 1, 4172.479, 4525.071, 4095.897, 4140.969, 4150.94, 450, 0, []
1629356919.9555, 68, 0, 4172.308, 4538.974, 4092.821, 4140.513, 4149.231, 16151, 0, []
1629356919.9635, 69, 0, 4177.436, 4507.179, 4112.308, 4146.154, 4146.154, 450, 0, []
1629356919.9714, 70, 0, 4180, 4397.436, 4109.744, 4148.205, 4153.846, 16129, 0, []
1629356919.9793, 71, 0, 4176.923, 4428.718, 4107.692, 4142.564, 4155.385, 450, 0, []
1629356919.9871, 72, 0, 4167.179, 4480.513, 4106.154, 4128.205, 4141.026, 450, 0, []
1629356919.995, 73, 0, 4168.718, 4436.41, 4095.897, 4126.667, 4137.949, 16164, 0, []
1629356920.0029, 74, 0, 4192.308, 4304.615, 4124.103, 4155.385, 4168.205, 450, 0, []
1629356920.0108, 75, 0, 4192.821, 4205.128, 4114.359, 4156.923, 4173.333, 16144, 0, []
1629356920.0188, 76, 0, 4170.256, 4290.256, 4087.179, 4125.641, 4146.154, 450, 0, []
1629356920.0268, 77, 0, 4175.385, 4453.846, 4099.487, 4129.231, 4145.128, 450, 0, []
1629356920.0346, 78, 0, 4182.051, 4488.718, 4097.436, 4145.641, 4151.795, 450, 0, []
1629356920.0425, 79, 0, 4167.179, 4375.385, 4090.769, 4135.385, 4145.128, 16144, 0, []
1629356920.0504, 80, 0, 4169.231, 4264.103, 4090.256, 4134.872, 4151.795, 450, 0, []
1629356920.0584, 81, 0, 4194.359, 4244.615, 4107.179, 4154.872, 4172.308, 450, 0, []
1629356920.0664, 82, 0, 4201.026, 4244.615, 4111.795, 4157.949, 4177.949, 450, 0, []
1629356920.0742, 83, 0, 4175.897, 4193.846, 4079.487, 4130.256, 4158.462, 16144, 0, []
1629356920.0821, 84, 0, 4161.026, 4108.205, 4081.026, 4111.795, 4148.718, 450, 0, []
1629356920.0901, 85, 0, 4173.333, 4032.821, 4088.205, 4114.872, 4160.513, 450, 0, []
1629356920.0981, 86, 0, 4177.436, 4036.923, 4083.077, 4119.487, 4158.974, 450, 0, []
1629356920.106, 87, 0, 4175.385, 4118.462, 4095.897, 4130.769, 4156.923, 16144, 0, []
1629356920.1139, 88, 0, 4181.026, 4119.487, 4095.385, 4138.974, 4164.615, 450, 0, []
1629356920.1218, 89, 0, 4176.41, 4073.333, 4101.538, 4130.256, 4162.564, 450, 0, []
1629356920.1298, 90, 0, 4177.949, 4183.077, 4105.128, 4128.718, 4162.051, 450, 0, []
1629356920.1378, 91, 1, 4204.843, 4223.362, 4104.729, 4128.547, 4180.285, 2193.778, 0, []
1629356920.1457, 92, 1, 4231.738, 4263.647, 4104.33, 4128.376, 4198.519, 3937.556, 0, []
1629356920.1535, 93, 1, 4258.632, 4303.932, 4103.932, 4128.205, 4216.752, 5681.333, 0, []
1629356920.1614, 94, 1, 4285.527, 4344.217, 4103.533, 4128.034, 4234.986, 7425.111, 0, []
1629356920.1693, 95, 1, 4312.422, 4384.501, 4103.134, 4127.863, 4253.219, 9168.889, 0, []
1629356920.1772, 96, 1, 4339.316, 4424.786, 4102.735, 4127.692, 4271.453, 10912.667, 0, []
1629356920.1851, 97, 1, 4366.211, 4465.071, 4102.336, 4127.521, 4289.687, 12656.444, 0, []
1629356920.1929, 98, 1, 4393.105, 4505.356, 4101.937, 4127.35, 4307.92, 14400.222, 0, []
1629356920.2008, 99, 0, 4420, 4545.641, 4101.538, 4127.179, 4326.154, 16144, 0, []
1629356920.2088, 100, 0, 4437.436, 4479.487, 4104.615, 4116.41, 4330.769, 450, 0, []
1629356920.2167, 101, 0, 4414.359, 4318.974, 4083.077, 4106.154, 4306.667, 450, 0, []
1629356920.2246, 102, 0, 4372.821, 4291.282, 4084.615, 4100.513, 4277.436, 450, 0, []
1629356920.2324, 103, 0, 4332.308, 4302.051, 4079.487, 4099.487, 4254.359, 16144, 0, []
1629356920.2404, 104, 0, 4312.821, 4224.103, 4092.308, 4108.718, 4244.103, 450, 0, []
1629356920.2484, 105, 0, 4313.333, 4228.205, 4108.205, 4126.667, 4247.692, 450, 0, []
1629356920.2563, 106, 0, 4300.513, 4309.231, 4093.333, 4134.359, 4244.103, 450, 0, []
1629356920.2642, 107, 0, 4274.359, 4346.667, 4087.692, 4120, 4225.641, 16144, 0, []
1629356920.2721, 108, 0, 4255.385, 4324.615, 4067.179, 4093.846, 4202.051, 450, 0, []
1629356920.2801, 109, 0, 4239.487, 4287.179, 4063.59, 4082.564, 4186.154, 450, 0, []
1629356920.288, 110, 0, 4227.692, 4289.744, 4083.59, 4082.051, 4184.103, 450, 0, []
1629356920.296, 111, 0, 4236.41, 4293.846, 4090.256, 4079.487, 4188.718, 16144, 0, []
1629356920.3039, 112, 0, 4238.462, 4248.718, 4103.077, 4085.641, 4183.077, 450, 0, []
1629356920.3118, 113, 0, 4216.41, 4216.41, 4090.256, 4099.487, 4170.256, 450, 0, []
1629356920.3198, 114, 0, 4209.744, 4248.205, 4089.744, 4120, 4176.923, 450, 0, []
1629356920.3277, 115, 0, 4234.359, 4284.615, 4112.308, 4143.59, 4193.846, 16144, 0, []
1629356920.3356, 116, 0, 4245.641, 4314.872, 4104.615, 4148.718, 4193.333, 450, 0, []
1629356920.3436, 117, 0, 4232.308, 4335.897, 4109.744, 4145.641, 4194.359, 450, 0, []
1629356920.3514, 118, 0, 4226.154, 4321.026, 4110.256, 4144.103, 4197.949, 450, 0, []
1629356920.3594, 119, 0, 4220, 4235.897, 4100.513, 4133.333, 4178.462, 16144, 0, []
1629356920.3674, 120, 1, 4217.265, 4230.598, 4100.798, 4130.541, 4175.897, 14400.222, 0, []
1629356920.3753, 121, 1, 4214.53, 4225.299, 4101.083, 4127.749, 4173.333, 12656.444, 0, []
1629356920.3832, 122, 1, 4211.795, 4220, 4101.368, 4124.957, 4170.769, 10912.667, 0, []
1629356920.391, 123, 1, 4209.06, 4214.701, 4101.652, 4122.165, 4168.205, 9168.889, 0, []
1629356920.3989, 124, 1, 4206.325, 4209.402, 4101.937, 4119.373, 4165.641, 7425.111, 0, []
1629356920.4068, 125, 1, 4203.59, 4204.103, 4102.222, 4116.581, 4163.077, 5681.333, 0, []
1629356920.4147, 126, 1, 4200.855, 4198.803, 4102.507, 4113.789, 4160.513, 3937.556, 0, []
1629356920.4226, 127, 1, 4198.12, 4193.504, 4102.792, 4110.997, 4157.949, 2193.778, 0, []
1629356920.4304, 128, 0, 4195.385, 4188.205, 4103.077, 4108.205, 4155.385, 450, 0, []
1629356920.4384, 0, 0, 4186.667, 4158.462, 4092.821, 4100.513, 4154.359, 450, 0, []
1629356920.4463, 1, 0, 4198.462, 4148.718, 4121.026, 4114.872, 4165.128, 450, 0, []
1629356920.4542, 2, 0, 4206.154, 4131.282, 4116.41, 4129.231, 4163.077, 16185, 0, []
1629356920.4621, 3, 0, 4190.769, 4082.051, 4104.615, 4121.026, 4147.179, 450, 0, []
1629356920.4699, 4, 0, 4187.692, 4070.256, 4110.256, 4114.872, 4151.282, 16170, 0, []
1629356920.4778, 5, 0, 4200.513, 4079.487, 4111.282, 4121.538, 4163.59, 450, 0, []
1629356920.4858, 6, 0, 4191.795, 4076.923, 4107.179, 4117.436, 4152.821, 16136, 0, []
1629356920.4938, 7, 0, 4175.385, 4069.231, 4086.154, 4102.564, 4131.282, 450, 0, []
1629356920.5017, 8, 0, 4178.462, 4073.846, 4100, 4106.154, 4135.897, 450, 0, []
1629356920.5096, 9, 0, 4187.692, 4177.436, 4114.872, 4123.59, 4157.436, 16165, 0, []
1629356920.5174, 10, 0, 4191.282, 4312.821, 4097.949, 4131.795, 4160, 450, 0, []
1629356920.5254, 11, 0, 4187.692, 4276.41, 4104.103, 4129.231, 4146.667, 16181, 0, []
1629356920.5334, 12, 0, 4188.205, 4160, 4109.231, 4128.205, 4147.692, 450, 0, []
1629356920.5414, 13, 0, 4194.872, 4088.205, 4114.359, 4129.231, 4160, 450, 0, []
1629356920.5493, 14, 0, 4193.846, 3974.359, 4112.308, 4124.103, 4155.385, 450, 0, []
1629356920.5571, 15, 0, 4189.231, 3880, 4101.538, 4117.949, 4144.103, 16181, 0, []
1629356920.5651, 16, 0, 4189.231, 3947.179, 4128.718, 4130.256, 4148.205, 0, 0, []
1629356920.573, 17, 0, 4182.564, 4042.051, 4125.128, 4135.385, 4150.769, 0, 0, []
1629356920.581, 18, 0, 4175.897, 4061.538, 4110.256, 4122.564, 4146.667, 0, 0, []
1629356920.5889, 19, 0, 4190.769, 4058.974, 4125.641, 4131.282, 4153.333, 0, 0, []
1629356920.5968, 20, 0, 4195.897, 4021.538, 4108.205, 4142.564, 4155.897, 0, 0, []
1629356920.6047, 21, 0, 4181.026, 4029.231, 4103.077, 4131.282, 4156.41, 0, 0, []
1629356920.6127, 22, 0, 4178.462, 4024.615, 4117.436, 4118.462, 4160.513, 0, 0, []
1629356920.6206, 23, 0, 4178.974, 3962.051, 4125.641, 4118.462, 4149.744, 0, 0, []
1629356920.6285, 24, 0, 4177.436, 4110.256, 4124.615, 4129.231, 4144.615, 0, 0, []
1629356920.6363, 25, 0, 4178.974, 4290.256, 4110.769, 4135.385, 4155.897, 0, 0, []
1629356920.6443, 26, 0, 4180.513, 4149.231, 4122.051, 4133.846, 4164.615, 0, 0, []
1629356920.6522, 27, 0, 4177.436, 4035.897, 4109.744, 4128.205, 4158.462, 0, 0, []
1629356920.6602, 28, 0, 4172.821, 4144.615, 4089.744, 4123.077, 4150.256, 0, 0, []
1629356920.6682, 29, 1, 4172.764, 4150.883, 4092.934, 4122.792, 4149.687, 0, 0, []
1629356920.676, 30, 1, 4172.707, 4157.151, 4096.125, 4122.507, 4149.117, 0, 0, []
1629356920.6839, 31, 1, 4172.65, 4163.419, 4099.316, 4122.222, 4148.547, 0, 0, []
1629356920.6918, 32, 1, 4172.593, 4169.687, 4102.507, 4121.937, 4147.977, 0, 0, []
1629356920.6997, 33, 1, 4172.536, 4175.954, 4105.698, 4121.652, 4147.407, 0, 0, []
1629356920.7076, 34, 1, 4172.479, 4182.222, 4108.889, 4121.368, 4146.838, 0, 0, []
1629356920.7154, 35, 1, 4172.422, 4188.49, 4112.08, 4121.083, 4146.268, 0, 0, []
1629356920.7233, 36, 1, 4172.365, 4194.758, 4115.271, 4120.798, 4145.698, 0, 0, []
1629356920.7312, 37, 0, 4172.308, 4201.026, 4118.462, 4120.513, 4145.128, 0, 0, []
1629356920.7392, 38, 0, 4171.282, 4146.154, 4108.718, 4130.256, 4150.256, 0, 0, []
1629356920.7471, 39, 0, 4169.744, 4145.641, 4125.128, 4135.897, 4156.41, 0, 0, []
1629356920.7549, 40, 0, 4166.154, 4254.872, 4115.897, 4128.205, 4154.872, 0, 0, []
1629356920.7628, 41, 0, 4165.641, 4150.256, 4113.846, 4121.538, 4148.205, 0, 0, []
1629356920.7706, 42, 0, 4169.744, 3993.846, 4112.308, 4119.487, 4145.641, 0, 0, []
1629356920.7786, 43, 0, 4164.103, 4019.487, 4091.795, 4115.385, 4141.026, 0, 0, []
1629356920.7865, 44, 0, 4152.308, 4055.897, 4096.41, 4113.846, 4135.385, 0, 0, []
1629356920.7943, 45, 0, 4148.205, 4075.385, 4087.692, 4107.179, 4134.872, 0, 0, []
1629356920.8021, 46, 0, 4151.282, 4118.974, 4089.744, 4104.615, 4136.41, 0, 0, []
1629356920.8101, 47, 0, 4158.974, 4124.615, 4094.359, 4108.205, 4136.41, 0, 0, []
1629356920.818, 48, 0, 4168.718, 4167.179, 4085.128, 4115.897, 4139.487, 0, 0, []
1629356920.8258, 49, 0, 4175.897, 4227.692, 4111.282, 4127.692, 4150.256, 0, 0, []
1629356920.8336, 50, 0, 4170.256, 4161.538, 4109.231, 4120.513, 4148.718, 0, 0, []
1629356920.8414, 51, 0, 4158.462, 4127.179, 4086.667, 4106.154, 4134.359, 0, 0, []
1629356920.8493, 52, 0, 4154.872, 4140.513, 4088.205, 4109.231, 4127.179, 0, 0, []
1629356920.8571, 53, 0, 4153.333, 4037.436, 4091.795, 4110.256, 4129.231, 0, 0, []
1629356920.865, 54, 0, 4156.923, 4028.205, 4118.462, 4109.231, 4144.103, 0, 0, []
1629356920.8727, 55, 0, 4165.641, 4130.769, 4120.513, 4115.897, 4155.385, 0, 0, []
1629356920.8806, 56, 0, 4161.026, 4098.462, 4096.41, 4110.769, 4143.077, 0, 0, []
1629356920.8884, 57, 0, 4157.436, 4056.41, 4099.487, 4103.077, 4132.821, 0, 0, []
1629356920.8963, 58, 0, 4164.103, 4103.59, 4106.667, 4114.872, 4142.564, 0, 0, []
1629356920.9041, 59, 0, 4164.103, 4006.667, 4119.487, 4123.59, 4154.359, 0, 0, []
1629356920.912, 60, 0, 4157.949, 3877.949, 4111.282, 4113.333, 4150.769, 0, 0, []
1629356920.9199, 61, 0, 4151.282, 3977.436, 4101.026, 4100.513, 4137.949, 0, 0, []
1629356920.9279, 62, 0, 4151.282, 4087.692, 4112.308, 4102.564, 4133.846, 0, 0, []
1629356920.9358, 63, 0, 4165.128, 4066.154, 4119.487, 4120.513, 4148.205, 0, 0, []
1629356920.9438, 64, 0, 4178.462, 4047.179, 4144.103, 4136.41, 4168.718, 450, 0, []
1629356920.9516, 65, 0, 4172.308, 4071.282, 4131.282, 4122.051, 4162.051, 450, 0, []
1629356920.9595, 66, 0, 4159.487, 4100.513, 4102.051, 4097.949, 4140, 16185, 0, []
1629356920.9674, 67, 0, 4157.949, 4089.744, 4117.436, 4103.077, 4141.026, 450, 0, []
1629356920.9753, 68, 0, 4155.897, 4058.974, 4109.744, 4111.282, 4147.692, 16163, 0, []
1629356920.9832, 69, 0, 4151.795, 4050.769, 4102.051, 4107.179, 4145.641, 450, 0, []
1629356920.9909, 70, 0, 4158.974, 4083.59, 4103.077, 4108.205, 4144.103, 16131, 0, []
1629356920.9989, 71, 0, 4174.872, 4135.897, 4103.59, 4116.41, 4150.769, 450, 0, []
1629356921.0068, 72, 0, 4173.846, 4155.385, 4112.308, 4122.051, 4157.436, 450, 0, []
1629356921.0147, 73, 0, 4155.385, 4102.051, 4090.256, 4112.308, 4150.769, 16166, 0, []
1629356921.0227, 74, 0, 4160, 4085.128, 4099.487, 4110.769, 4149.231, 450, 0, []
1629356921.0306, 75, 0, 4186.667, 4201.538, 4128.205, 4128.205, 4164.615, 16190, 0, []
1629356921.0385, 76, 0, 4188.718, 4289.231, 4117.949, 4130.769, 4165.128, 450, 0, []
1629356921.0464, 77, 0, 4169.231, 4255.385, 4111.282, 4115.385, 4153.333, 450, 0, []
1629356921.0544, 78, 0, 4169.231, 4213.333, 4103.59, 4115.385, 4158.974, 450, 0, []
1629356921.0624, 79, 0, 4192.821, 4240.513, 4113.333, 4132.308, 4175.897, 16190, 0, []
1629356921.0702, 80, 0, 4207.692, 4292.821, 4122.051, 4136.41, 4182.564, 450, 0, []
1629356921.0782, 81, 0, 4193.846, 4297.436, 4108.718, 4123.077, 4177.949, 450, 0, []
1629356921.0861, 82, 0, 4184.615, 4273.846, 4119.487, 4122.051, 4178.462, 450, 0, []
1629356921.0941, 83, 0, 4192.308, 4228.718, 4109.231, 4126.667, 4178.974, 16190, 0, []
1629356921.102, 84, 0, 4190.256, 4133.333, 4099.487, 4125.641, 4173.846, 450, 0, []
1629356921.1099, 85, 0, 4180.513, 4106.667, 4107.179, 4124.103, 4170.769, 450, 0, []
